BEGIN IONS
TITLE=Spectrum 1AVVQDPALKPLALVYGEATSR.csv DRIFT_TIME=11.2327 11.0954 11.2467 11.2877 11.3053 11.2152 11.1838 11.2084 11.4142 11.3938 11.2818 11.3057 11.3742 11.3868 11.5282 11.4278 11.4115 11.3939 11.4783 11.526 11.5514 11.5259 11.8005 11.3961 11.4941 11.4749 11.7034 11.3977 11.4483 11.4203 11.9249 11.5248 11.4513 11.7193 11.8121 11.6564 12.5227 11.6673 11.9304 11.963 12.173 12.3018 12.3642 14.1219 12.7876 12.2712 11.9989 13.1035 17.1185 13.5998 12.8323 13.009 14.2083 13.9825 18.1917 18.5355 14.249 15.755299 12.9611 13.6096 13.0209 14.4728 13.7243 13.687 13.6752 13.7085 13.6745 17.567 16.7862 18.7349 15.239 18.2997 19.783 19.599 15.1602 15.198799 15.1591 22.0086 21.8057 20.0988 24.3672 18.5479 14.7778 18.6672 18.6516 18.8583 22.8668 19.1472 23.5215 23.061 27.9159 23.9961 24.9667 18.7417 18.96 17.0827 17.2025 27.7432 28.0495 25.3452 25.4582 26.1132 21.2288 21.3988 22.0663 27.9044 17.4149 27.8524 27.7657 27.2752 24.2225 22.0228 30.0183 22.6477 22.6797 23.1724 24.0207 24.9819 28.5944 30.5956 30.0181 19.6009 19.9191 19.6003 19.5093 20.5181 20.6421 20.4832 31.5904 36.677 20.721 31.654099 31.364899 25.4334 33.9093 12.1665 23.1014 28.2481 26.7224 33.2061 36.3793 22.5434 22.8163 22.7156 32.7224 22.3183 32.7422 22.3876 33.7856 33.6913 25.6314 12.3858 12.4018 12.4352 14.103 14.4255 39.35 12.4574 35.1352 12.3883 35.3433 16.8708 23.8479 12.9012 12.7844 26.0837 29.507 26.9542 28.7521 35.7897 12.6921 12.727 27.0182 24.1841 17.0119 23.846 24.1874 39.5579 13.1133 13.0303 12.9568 31.2485 31.2682 31.257797 31.355 30.9246 12.3551 12.447 12.5557 36.8741 17.505 24.4673 13.1079 16.5583 24.0781 16.3412 38.6908 16.3022 12.678 13.2251 12.7864 13.6863 13.0535 14.038 29.1903 26.382 38.4086 13.3812 12.8227 40.9501 13.2298 13.0953 39.9485 25.3318 19.322 13.2903 13.1956 13.9075 13.2342 14.0613 31.660698 31.8138 32.0603 42.0241 31.938599 32.4379 13.3695 13.2413 13.3126 13.1481 23.9222 13.3864 24.404 24.2961 24.2073 13.9523 13.7093 41.5286 29.2785 41.3496 34.1392 34.5235 33.9545 33.9696 34.2243 13.8183 33.6931 14.0576 14.0643 13.7996 13.6787 41.8689 49.6152 27.6314 42.0647 49.1924 27.9437 44.9139 29.2664 44.5869 33.4441 32.4248 34.1698 37.6797 33.8733 34.0405 13.4548 45.2386 14.5838 33.9676 14.538 25.9835 25.5887 26.1572 13.5153 35.6065 35.6867 35.6535 13.9661 47.3066 15.430599 35.5202 15.499001 35.4539 32.237 31.7705 31.8919 13.9589 47.689 14.4519 45.9689 31.318298 34.8568 34.1817 21.856 21.6341 21.6462 48.1845 15.1651 24.0597 47.5861 49.2 35.1625 35.0449 24.9277 35.0363 24.71 24.5766 37.2744 37.1414 36.929 36.7354 36.8136 55.0482 25.5078 37.1372 27.7473 36.6327 29.6031 50.2078 50.0648 25.9714 16.1219 29.853 29.7685 39.5052 30.0417 36.3404 36.1107 26.9213 26.6832 34.8453 40.7009 34.9557 39.893 35.3303 39.694 39.6372 35.7345 38.6757 39.3564 38.7201 38.422 39.414 37.9977 33.3963 33.265 37.6188 34.6232 36.8169 43.0559 36.4518 42.3951 43.1926 53.8564 38.1202 38.001 37.9913 38.7771 38.0164 59.5954 58.9422 59.0429 60.6569 60.3877 36.75 41.0008 38.9907 44.945 41.0839 40.8724 40.6719 40.6259 40.1006 42.1578 43.4261 41.6252 38.7942 40.8734 40.8762 40.8496 40.8942 41.0429 44.3263 43.6879 43.9393 44.0618 44.7896 43.6201 43.7906 73.5988 72.7011 41.951 47.9382 46.1144 45.9357 46.9504 43.1448 43.7172 43.6749 77.0844 41.9786 42.8735 47.946 48.8424 47.2514 44.7542 45.2844 45.7819 45.4801 45.0624 46.3959 46.4728 46.386 45.93 45.7688 45.8648 46.0684 45.5635 48.7885 48.492 47.7681 86.8976 87.4537 49.6081 49.3135 49.0084 49.3493 48.8794 50.0996 49.447 53.0859 55.2587 96.957 97.1824 54.8706 54.619 55.8682 55.1806 56.1751 56.2237 56.4997 56.4708 56.7204 51.2785 116.8032 133.2865 133.1303 137.1663 130.0772 131.6484 138.8693 142.99 137.6125 158.8496 162.9964 155.9872 
PEPMASS=1099.615
CHARGE=2+
55.0647 297
56.0602 492
57.0447 253
70.0775 1812
72.093 3474
73.0975 196
84.0584 658
84.0945 934
86.1102 324
101.0899 244
104.0884 689
117.1244 205
122.1022 1485
129.1246 1314
130.1241 183
136.1004 166
141.1267 842
143.1426 1001
154.1503 182
169.1258 1831
170.1297 193
171.1427 1060
172.0067 306
172.1435 186
175.1506 426
181.0935 228
183.1809 188
185.1115 278
185.1305 292
196.0967 206
197.1991 422
198.1211 160
199.1076 175
200.176 205
202.0213 575
204.0361 173
211.1846 189
213.1233 815
216.0375 276
216.1364 241
226.1215 191
227.1059 583
228.1744 651
242.2282 668
244.1355 1119
250.0315 1045
252.0313 126
252.2188 150
254.2306 137
262.1994 228
263.0365 287
266.1658 211
270.2307 306
281.1538 458
282.2321 1100
283.2399 155
284.1733 1167
287.2608 161
287.9932 331
289.0514 464
291.0955 154
300.9831 131
307.0605 10444
308.0649 1737
309.0607 1692
310.0658 202
311.0574 366
324.1793 614
326.1929 620
327.2595 138
339.0438 246
341.207 213
343.2217 2975
344.2252 525
345.0165 1936
346.0192 246
347.0151 344
353.2895 176
355.2656 134
363.2648 245
369.2707 150
371.1247 269
377.9503 182
381.0011 805
383 462
383.0831 341
384.2555 138
385.0026 123
394.2421 339
395.2352 468
395.3383 391
397.2798 531
398.3091 406
399.0198 284
401.0102 199
409.0892 3179
410.0966 349
410.3487 2604
411.3543 620
412.2552 797
413.2622 139
414.2734 173
416.9881 454
418.9854 326
421.029 148
434.3151 1217
435.006 758
435.3149 324
438.3521 123
442.3092 300
445.065 135
447.0441 359
452.37 318
454.9409 706
456.9369 425
459.095 611
461.0961 118
466.119 171
466.3084 119
467.3376 173
468.3307 250
472.9539 1617
473.959 239
474.9463 271
476.9472 156
490.9688 2398
491.9766 413
492.9704 445
494.313 147
494.4189 360
494.9648 206
495.3478 340
496.3353 201
497.0453 238
497.3648 192
498.0474 374
499.0645 293
502.1018 121
504.088 154
507.3533 159
507.423 140
508.9384 1501
509.9426 195
510.9366 983
511.3435 536
511.941 145
512.3444 174
512.9315 202
513.3605 1889
514.3641 558
516.0117 135
516.0328 347
517.0283 375
518.0248 190
521.7577 188
522.2556 157
523.4659 168
524.4812 138
525.3633 761
525.4873 182
526.3698 215
530.2603 163
532.9897 160
535.0154 290
536.0148 230
537.0177 576
538.0816 246
539.0049 124
539.078 156
539.3825 246
543.473 151
544.478 158
546.0339 129
546.8915 1172
547.8025 113
547.9006 137
548.8919 345
551.455 167
552.9993 262
554.0028 312
554.9999 179
556.0908 2506
557.0929 1037
558.0901 1807
559.095 397
560.0774 590
562.0069 469
562.5117 225
563.015 168
563.3879 182
563.7885 132
564.9029 198
566.011 139
566.7704 210
566.9065 125
567.2652 270
567.4097 199
567.7726 184
570.4646 210
570.9791 178
571.4618 307
571.9895 244
572.4663 173
572.9844 160
572.9923 141
574.9792 373
579.3709 114
580.0023 286
580.996 487
581.4398 214
581.4956 206
581.9865 159
582.4223 166
582.8758 143
584.8406 132
588.4531 204
589.4546 288
589.9679 200
590.4534 228
590.9678 146
594.0472 2586
595.0474 729
596.0526 1017
596.429 182
597.049 219
598.0373 402
598.9762 681
599.4844 236
599.9805 436
600.48 164
600.8896 2781
600.98 191
601.8921 470
602.8888 551
604.8928 261
607.4323 183
608.4405 163
610.4356 390
610.9546 203
611.432 129
613.1228 2061
613.9933 158
614.1248 530
615.1259 536
615.9909 138
616.9707 331
617.1253 218
617.4655 153
617.9724 452
618.4544 155
618.9632 267
620.4127 968
620.5252 149
620.8279 172
621.4095 356
622.5384 150
622.8285 184
624.4511 443
624.9811 194
625.4611 177
630.0335 187
632.0077 484
633.0599 291
633.2172 109
634.0499 739
635.0495 193
635.4312 129
635.4692 149
635.9471 242
636.0536 153
636.9543 156
638.8432 321
638.9641 255
639.4605 230
644.9474 223
651.0702 11585
652.0813 2825
653.0706 2824
653.4122 124
653.4785 200
653.941 216
654.0812 562
654.9292 153
655.0688 728
656.8128 219
658.8186 287
660.8212 111
662.9419 201
663.4702 153
663.951 185
664.4481 147
664.9507 211
667.9789 317
669.9642 246
674.792 132
675.2691 143
675.7683 116
681.4811 1036
681.9272 128
682.3253 195
682.4839 517
683.4812 107
684.0318 802
685.0319 426
685.8726 331
686.0289 560
686.3776 243
686.8862 126
687.0573 3837
688.0559 912
689.0433 3146
690.0462 705
691.0353 669
691.5692 193
691.8565 136
692.0451 175
692.8547 122
693.0188 272
694.5039 116
695.5057 292
696.5048 130
696.9165 122
699.9084 148
703.0153 937
703.5191 791
703.9635 183
704.018 249
705.9502 450
707.9413 190
711.9283 112
712.4317 110
721.982 704
723.0463 509
723.9691 233
725.0255 654
725.9643 111
726.0317 144
727.0187 228
740.8907 121
741.0608 1168
741.9229 343
742.0631 235
743.0543 245
743.9275 311
745.0719 117
748.7632 167
750.7604 164
757.9691 127
759.5622 158
759.9458 371
761.0067 346
761.9495 126
763.0059 305
764.9948 107
766.4861 106
779.0078 4799
780.02 1116
781.0098 1211
782.004 230
783.0192 357
783.507 1169
784.5064 472
785.5071 143
794.5775 660
795.5892 335
795.5941 144
795.9161 576
797.9108 317
798.9626 133
814.9949 447
816.971 1501
817.9731 378
818.9826 440
819.9789 139
820.9667 186
831.9098 114
833.8695 240
834.626 109
843.6275 3090
844.1259 2903
844.6325 1561
845.1341 676
845.6316 227
852.9528 1714
853.9417 390
854.9532 902
855.9657 208
856.9518 387
858.9431 181
871.8671 110
882.5891 712
883.5883 406
887.8673 147
888.9396 322
889.9177 112
890.9022 433
892.9088 286
901.1537 366
901.6482 390
902.1657 166
903.7621 131
906.9455 301
908.9295 112
926.887 425
928.8931 277
930.8807 139
942.9259 128
944.9012 1440
945.8962 246
946.9065 360
948.8911 156
956.6863 283
957.1761 246
957.6732 149
961.8223 160
965.1951 466
965.6918 591
966.1983 262
966.6751 143
980.8786 337
981.8864 117
982.8667 314
995.7024 514
996.6996 324
1014.7297 601
1015.2356 824
1015.7321 504
1016.2394 243
1018.8441 562
1019.8353 122
1020.839 290
1054.8275 123
1064.7893 132
1066.7501 534
1067.7513 296
1090.7943 122
1091.2821 149
1091.7954 221
1092.784 179
1099.7983 3092
1100.2981 3776
1100.8032 2588
1101.3047 1290
1101.8069 487
1110.8013 184
1179.8528 271
1276.9095 3319
1277.914 2238
1278.9215 809
1278.9315 856
1279.927 292
1405.0326 691
1406.0518 479
1407.0485 252
1686.2595 606
1687.2505 651
1687.2695 556
END IONS
BEGIN IONS
TITLE=Spectrum 1DFPIANGER_01.csv DRIFT_TIME=16.4366 16.0668 16.1296 15.9522 16.1348 16.3723 16.0212 16.3292 16.3657 16.299 16.1896 16.1564 16.1464 16.1072 16.4333 16.1523 16.3531 16.1059 16.0457 16.4886 16.1854 16.2811 16.2977 16.2125 17.9579 16.0404 16.0131 16.5339 16.2991 16.7011 16.0351 16.3732 16.2228 16.5265 16.1835 16.614 16.2637 16.5027 16.2424 16.5538 16.9455 16.5128 16.4427 16.504 16.5172 16.4946 16.6506 16.2569 16.4465 16.3097 16.2334 16.4799 16.4185 16.6821 16.5521 16.7076 16.8373 16.5955 16.9013 16.6262 16.8732 16.5744 16.4824 16.6092 16.7425 16.2777 16.6438 16.6755 17.2056 16.6546 16.8199 18.5099 16.7381 19.3351 16.7173 16.7993 17.8106 16.8006 17.6295 17.0892 17.4887 16.8521 16.8362 16.8052 17.021 17.0958 17.1398 16.8267 16.7905 18.158 18.2876 17.9338 17.8886 18.6295 17.5159 17.1394 17.8614 17.0721 17.1975 18.6513 17.5717 18.1964 17.5603 17.5171 17.2569 19.0292 17.2014 18.0792 18.1215 18.3299 18.4372 18.6563 17.9348 18.4628 18.5383 18.6872 17.5982 18.5492 17.2752 17.7869 17.382 17.4934 17.2737 17.5105 17.9576 18.5166 19.4338 18.8512 18.7492 18.8277 18.7924 18.7414 18.8859 18.4407 18.2679 18.2221 18.2693 19.0391 18.0341 18.6576 19.1025 18.3347 18.8041 19.0551 18.5764 16.5259 18.6705 16.8789 20.7183 19.1509 20.8341 19.4879 19.69 19.6526 16.2689 17.9569 20.7519 18.9054 19.0028 18.8734 18.9546 16.4157 18.8686 16.4758 16.4383 18.8662 19.9725 16.3481 20.0648 19.2964 24.4505 25.3642 17.1809 17.4485 20.5004 20.8615 18.6702 17.4445 18.0477 16.3858 18.7492 19.148 19.6988 19.6983 20.0398 19.107 19.6615 19.8557 19.297 19.4946 19.279 19.3982 19.5006 22.3458 22.1117 16.3585 17.9843 16.3841 19.8251 16.5005 19.7123 24.1029 20.7182 16.607 19.0377 20.5497 26.9279 21.364 22.4665 18.6781 20.4716 18.1457 18.6243 19.4691 20.0814 19.3812 16.6671 19.4312 19.6168 19.7082 19.2901 19.8789 24.8777 19.325 19.4094 16.7782 21.8069 16.3676 16.7568 16.3304 21.3988 16.3403 21.4441 16.5242 21.3296 18.7838 18.2625 24.3832 30.0549 22.7771 23.2063 29.8744 18.4899 20.173 22.2643 24.2363 30.4601 16.5366 22.3411 16.5088 23.5182 28.1852 16.4191 16.7044 23.7466 27.4421 16.5826 19.5965 22.5334 16.4745 22.7172 18.8848 16.2807 16.2563 24.0853 19.6772 24.1619 27.5235 19.7335 23.9838 19.5743 24.2862 18.6808 31.378601 23.1151 32.1553 18.3964 27.4747 19.0696 22.5149 26.5264 21.5972 21.4411 16.4699 21.6298 16.5379 21.4892 16.7473 21.4102 16.7099 21.3657 16.4888 19.9284 16.484 24.8378 16.4659 16.6108 25.366 20.288 17.2149 19.9555 16.5369 19.7271 28.5065 16.9932 29.1278 29.0623 15.9307 22.6192 16.4406 22.5504 22.5632 16.5646 16.2839 16.6806 16.663 22.9252 30.9679 20.086 30.828 20.2166 17.1079 20.5157 17.2257 17.341 20.1003 20.7806 18.713 21.2336 16.4809 18.9196 16.5461 16.4903 32.0891 32.5273 16.8403 16.9138 17.2671 33.6049 17.2109 17.1826 26.989 17.2021 16.6629 26.4873 31.624802 21.067 26.439 20.5531 26.5433 21.3119 26.0902 21.0267 26.4414 20.7284 17.1812 20.8692 16.8835 21.076 35.3372 34.6036 17.4362 25.6404 17.1667 17.5669 22.0875 18.0734 17.8971 16.4985 16.7867 16.5774 33.5019 32.9412 16.525 17.4927 27.1773 17.1822 17.4958 21.6956 27.1363 17.4345 17.2498 27.1788 18.0206 18.4786 27.1938 21.5594 26.8573 20.913 32.2196 17.4735 32.2868 17.9501 17.9596 17.7413 16.6199 17.6436 16.6102 17.6132 16.8416 36.5945 18.4538 18.2236 18.1321 17.6796 24.1456 30.3461 17.7073 17.718 23.944 17.7061 30.138 18.8294 29.5991 18.3411 39.4733 18.4784 16.7408 18.2431 39.2974 18.1356 19.732 19.2659 42.3266 42.0537 17.8769 17.7145 40.9887 17.5792 24.4062 16.3205 17.7016 16.6939 25.9906 19.6118 26.019 19.5616 19.3847 25.9455 18.3034 18.9418 22.6995 25.9244 19.2744 24.7596 18.7751 19.0283 24.7647 17.8746 17.9139 19.849 24.4392 17.921 18.3602 18.2522 18.0279 18.462 37.5353 20.2726 34.772 20.7936 20.8454 20.0649 19.7654 24.5747 26.7244 18.2951 18.8787 18.6372 18.7791 26.9946 18.7929 38.0728 20.6503 26.4568 20.6088 40.8703 20.696 20.3556 20.6263 27.0857 19.7201 19.5384 19.3671 19.0276 19.3154 39.3237 39.7386 19.5426 19.8518 19.9197 19.7871 34.1466 19.6941 19.8093 19.8028 19.5924 19.9938 20.6653 20.5375 20.0265 19.9286 20.0628 20.0199 27.9922 27.863 28.0202 38.606 18.6843 41.299 27.9152 40.9521 27.7741 40.9311 21.3566 21.1591 20.7842 20.4592 20.6183 20.7318 20.4289 20.6639 21.6887 22.8359 21.9001 21.8986 21.828 48.9659 21.3005 21.7931 22.7453 22.1849 47.0242 21.8656 29.0822 21.8862 21.5334 29.0605 21.5342 21.2762 29.2827 21.241 29.0166 47.1484 21.0763 20.7128 23.7725 23.2866 23.2427 22.5907 22.3763 22.6478 22.3892 22.6076 21.8565 21.1789 21.1976 21.3253 25.0633 44.5156 24.9635 51.64 69.2718 78.3511 24.1749 31.958199 23.6195 45.9292 50.1078 52.8794 29.742 23.59 32.017 23.5735 46.9565 23.1683 31.862602 23.2366 46.7062 52.0096 62.1432 22.2513 31.0136 22.6621 46.6802 62.7853 22.3722 31.283302 63.392303 46.2169 46.2961 46.3898 46.6357 48.2511 39.4897 51.3482 34.0533 51.6041 51.4097 33.935 51.7659 49.9901 48.5227 43.6891 59.4841 52.6559 59.7124 59.8349 59.8188 53.8634 54.8836 33.8293 62.319 61.5918 61.8489 62.9135 63.858 65.1735 65.206 64.2994 70.6629 31.626602 69.8454 70.053 72.2694 69.328 68.4604 34.0857 75.3138 78.4957 80.6284 83.9872 84.7375 86.6097 82.2471 78.174 77.831 77.6431 76.9445 76.7598 92.0995 102.3397 102.1087 104.0015 
PEPMASS=509.754
CHARGE=2+
102.9889 194
104.0928 1945
110.0932 3779
111.0975 700
112.1112 174
114.9766 479
116.0964 314
116.9736 489
117.012 765
118.9716 595
120.1056 4029
121.1096 469
122.1067 4600
123.1111 279
125.0178 171
129.1298 1009
129.9915 1006
130.0924 1695
131.0922 243
132.9852 161
134.9894 180
136.1044 1062
136.9822 187
137.1106 225
141.053 141
141.4902 429
144.1114 243
144.9944 169
147.1438 340
148.0039 223
150.5002 160
152.0356 686
154.1557 336
157.0385 383
158.1254 579
159.0125 469
159.1248 660
160.0613 941
160.1301 159
164.0357 378
166.9043 221
168.0319 259
169.1335 254
169.1668 185
170.0466 190
171.1865 242
172.0106 1707
172.1109 576
175.1223 1510
175.1555 1704
176.122 255
178.0779 198
179.134 228
182.0521 160
183.1876 2927
184.0128 301
184.0667 177
184.192 456
186.0302 1137
188.0074 223
190.0234 399
190.1263 1532
191.1277 242
193.0072 420
195.0037 2788
195.1175 172
196.0066 644
197.0005 2225
198.0323 1076
200.1142 179
202.0265 1722
202.9339 367
203.0355 426
203.9326 146
204.0434 1294
204.176 1027
204.9303 310
205.181 327
210.126 297
211.0256 171
211.187 640
213.017 891
214.024 218
215.0158 599
216.0452 1045
217.1419 703
218.1281 433
219.0044 286
220.0256 421
220.9472 331
221.9471 462
222.9453 271
223.9363 377
226.124 560
227.9283 136
227.9789 226
229.1675 161
231.0606 163
232.0264 2028
234.0013 312
235.1556 7524
236.004 157
236.1598 1299
237.1626 186
239.167 267
239.9847 229
241.9479 348
243.9799 180
244.0322 288
244.1406 212
245.1422 243
245.9492 5200
246.0443 191
246.953 403
247.9473 2036
248.9503 143
249.1493 352
249.9438 284
250.0401 4204
250.1496 165
251.0471 518
252.0334 1008
253.0414 188
254.0352 426
255.0676 156
256.1398 343
257.2051 171
257.9931 600
258.0623 264
258.2018 261
258.8624 137
259.2005 187
259.9697 1015
261.9708 290
262.0465 450
263.0391 701
263.1513 188
263.9637 2788
264.0594 3867
264.966 169
265.9627 1113
265.9893 1127
267.1626 484
267.9599 157
268.1663 267
269.0134 267
269.1788 160
269.9493 225
269.9854 271
270.1644 132
271.9823 217
272.0194 226
272.1858 170
273.1827 207
273.9548 181
274.0466 329
275.1784 155
275.2276 157
275.9659 5815
276.9739 618
277.9669 2562
278.5518 914
278.9674 187
279.0554 168
279.5502 196
279.9663 341
280.0106 505
280.5356 245
281.1597 357
281.9806 484
282.1959 218
282.2431 308
283.9699 4554
284.9731 280
285.1882 144
285.9792 387
286.8567 2993
286.945 379
288.0015 2059
288.0968 208
288.8553 396
289.0614 1413
289.9852 3081
290.0511 512
290.9917 440
291.0569 467
291.982 1234
292.0598 922
293.0521 159
293.9799 2265
294.8946 209
294.9873 289
295.9794 970
296.214 333
297.2173 169
297.5305 678
298.0318 295
298.5238 200
299.0313 459
299.5141 243
300.0282 148
300.2183 133
300.9922 8290
301.51 131
301.991 919
302.9905 1006
303.2145 152
303.9935 169
304.225 132
304.8718 2031
304.9835 304
306.0151 858
306.8709 287
307.0712 17331
307.9993 729
308.0777 2369
308.5172 252
309.0716 2617
310.0002 266
310.0751 209
311.0705 505
311.9966 140
312.2192 437
312.9055 288
313.9033 519
314.2268 120
315.0201 256
316.5115 600
317.0097 137
317.5187 250
319.0091 2812
319.9329 206
320.0108 217
320.5129 136
321.003 283
322.8817 475
322.9455 447
323.1908 116
323.2946 2493
323.9815 955
324.2148 290
324.298 779
324.9418 388
325.0467 194
325.1507 152
325.2177 189
325.2941 140
325.5129 159
325.9711 222
326.0465 1802
326.2145 151
326.271 323
326.5489 267
327.0448 287
327.2076 173
328.2515 158
329.6964 135
331.8979 154
334.016 138
334.5014 318
335.0148 449
335.9431 168
336.0213 162
336.5131 116
336.9775 2565
337.9038 4966
337.9829 268
338.2522 429
338.9066 329
338.9757 1365
339.9064 320
339.9814 150
340.9647 333
341.3081 818
341.9961 850
342.3108 221
342.9533 389
343.2322 212
343.8936 263
343.9939 270
344.229 280
345.0256 37369
345.2067 166
345.527 787
346.0329 7192
346.5236 290
347.0259 7176
347.5264 139
348.0333 929
348.5442 154
349.0245 2371
351.7085 137
351.9263 645
352.4919 404
353.1218 194
353.4885 259
354.0289 293
354.9935 252
355.9196 4458
356.2627 154
356.9194 260
357.0382 149
357.9231 322
360.233 132
360.9644 117
361.2599 1460
362.2654 235
363.0093 139
363.0443 2338
364.0152 236
364.0506 279
365.0434 268
365.5044 426
365.9072 187
366.0075 153
366.5107 179
367.0401 119
367.2724 345
367.9224 4854
368.2726 238
368.9264 318
369.7665 201
369.9366 950
370.2629 410
370.7618 186
371.9102 192
373.9342 1864
374.7568 303
374.9419 108
