BEGIN IONS
TITLE=Spectrum 1AVVQDPALKPLALVYGEATSR.csv DRIFT_TIME=11.2327 11.0954 11.2467 11.2877 11.3053 11.2152 11.1838 11.2084 11.4142 11.3938 11.2818 11.3057 11.3742 11.3868 11.5282 11.4278 11.4115 11.3939 11.4783 11.526 11.5514 11.5259 11.8005 11.3961 11.4941 11.4749 11.7034 11.3977 11.4483 11.4203 11.9249 11.5248 11.4513 11.7193 11.8121 11.6564 12.5227 14.1219 17.1185 18.1917 18.5355 18.7349 19.783 19.599 22.0086 21.8057 24.3672 22.8668 23.5215 23.061 27.9159 23.9961 24.9667 27.7432 28.0495 25.3452 25.4582 26.1132 27.9044 27.8524 27.7657 27.2752 30.0183 28.5944 30.5956 30.0181 31.5904 36.677 31.654099 31.364899 33.9093 33.2061 36.3793 32.7224 32.7422 33.7856 33.6913 39.35 35.1352 35.3433 35.7897 39.5579 36.8741 38.6908 38.4086 40.9501 39.9485 42.0241 41.5286 41.3496 41.8689 49.6152 42.0647 49.1924 44.9139 44.5869 37.6797 45.2386 47.3066 47.689 45.9689 48.1845 47.5861 49.2 55.0482 50.2078 50.0648 53.8564 59.5954 58.9422 59.0429 60.6569 60.3877 73.5988 72.7011 77.0844 86.8976 87.4537 96.957 97.1824 116.8032 133.2865 133.1303 137.1663 130.0772 131.6484 138.8693 142.99 137.6125 158.8496 162.9964 155.9872 
PEPMASS=1099.615
CHARGE=2+
55.0647 297.0
56.0602 492.0
57.0447 253.0
70.0775 1812.0
72.093 3474.0
73.0975 196.0
84.0584 658.0
84.0945 934.0
86.1102 324.0
101.0899 244.0
104.0884 689.0
117.1244 205.0
122.1022 1485.0
129.1246 1314.0
130.1241 183.0
136.1004 166.0
141.1267 842.0
143.1426 1001.0
154.1503 182.0
169.1258 1831.0
170.1297 193.0
171.1427 1060.0
172.0067 306.0
172.1435 186.0
175.1506 426.0
181.0935 228.0
183.1809 188.0
185.1115 278.0
185.1305 292.0
196.0967 206.0
197.1991 422.0
198.1211 160.0
199.1076 175.0
200.176 205.0
202.0213 575.0
204.0361 173.0
211.1846 189.0
242.2282 668.0
254.2306 137.0
282.2321 1100.0
283.2399 155.0
327.2595 138.0
343.2217 2975.0
344.2252 525.0
353.2895 176.0
355.2656 134.0
369.2707 150.0
384.2555 138.0
394.2421 339.0
395.2352 468.0
395.3383 391.0
397.2798 531.0
398.3091 406.0
410.3487 2604.0
411.3543 620.0
412.2552 797.0
413.2622 139.0
414.2734 173.0
434.3151 1217.0
435.3149 324.0
438.3521 123.0
442.3092 300.0
452.37 318.0
466.3084 119.0
467.3376 173.0
468.3307 250.0
494.313 147.0
494.4189 360.0
495.3478 340.0
496.3353 201.0
497.3648 192.0
507.3533 159.0
507.423 140.0
511.3435 536.0
512.3444 174.0
513.3605 1889.0
514.3641 558.0
523.4659 168.0
525.3633 761.0
526.3698 215.0
539.3825 246.0
551.455 167.0
563.3879 182.0
567.4097 199.0
579.3709 114.0
581.4398 214.0
582.4223 166.0
596.429 182.0
610.4356 390.0
611.432 129.0
620.4127 968.0
620.5252 149.0
621.4095 356.0
622.5384 150.0
624.4511 443.0
625.4611 177.0
633.2172 109.0
635.4692 149.0
653.4785 200.0
663.4702 153.0
664.4481 147.0
681.4811 1036.0
682.4839 517.0
683.4812 107.0
691.5692 193.0
695.5057 292.0
696.5048 130.0
766.4861 106.0
783.507 1169.0
784.5064 472.0
785.5071 143.0
794.5775 660.0
795.5892 335.0
882.5891 712.0
883.5883 406.0
903.7621 131.0
995.7024 514.0
996.6996 324.0
1066.7501 534.0
1067.7513 296.0
1179.8528 271.0
1276.9095 3319.0
1277.914 2238.0
1278.9215 809.0
1278.9315 856.0
1279.927 292.0
1405.0326 691.0
1406.0518 479.0
1407.0485 252.0
1686.2595 606.0
1687.2505 651.0
1687.2695 556.0
END IONS
BEGIN IONS
TITLE=Spectrum 1DFPIANGER_01.csv DRIFT_TIME=16.4366 16.0668 16.1296 15.9522 16.1348 16.3723 16.0212 16.3292 16.3657 16.299 16.1896 16.1564 16.1464 16.1072 16.4333 16.1523 16.3531 16.1059 16.0457 16.4886 16.1854 16.2811 16.2977 16.2125 17.9579 16.0404 16.0131 16.5339 16.2991 16.7011 16.0351 16.3732 16.2228 16.5265 16.1835 16.614 16.2637 16.5027 16.2424 16.5538 16.9455 16.5128 16.4427 16.504 16.5172 16.4946 16.6506 16.2569 16.4465 16.3097 16.2334 16.4799 16.4185 16.6821 16.5521 16.7076 16.8373 16.5955 16.9013 16.6262 16.8732 16.5744 16.4824 16.6092 16.7425 16.2777 16.6438 16.6755 17.2056 16.6546 16.8199 18.5099 16.7381 19.3351 16.7173 16.7993 17.8106 16.8006 17.6295 17.0892 17.4887 16.8521 16.8362 16.8052 17.021 17.0958 17.1398 16.8267 16.7905 18.158 18.2876 17.9338 17.8886 18.6295 17.5159 17.1394 17.8614 17.0721 17.1975 18.6513 17.5717 18.1964 17.5603 17.5171 17.2569 19.0292 17.2014 18.0792 18.1215 18.3299 18.4372 18.6563 17.9348 18.4628 18.5383 18.6872 17.5982 18.5492 17.2752 17.7869 17.382 17.4934 17.2737 17.5105 17.9576 18.5166 19.4338 18.8512 18.7492 18.8277 18.7924 18.7414 18.8859 18.4407 18.2679 18.2221 18.2693 19.0391 18.0341 18.6576 19.1025 18.3347 18.8041 19.0551 18.5764 18.6705 20.7183 19.1509 20.8341 19.4879 19.69 19.6526 17.9569 20.7519 18.9054 19.0028 18.8734 18.9546 18.8686 18.8662 19.9725 20.0648 19.2964 24.4505 25.3642 20.5004 20.8615 18.6702 18.7492 19.148 19.6988 19.6983 20.0398 19.107 19.6615 19.8557 19.297 19.4946 19.279 19.3982 19.5006 22.3458 22.1117 19.8251 19.7123 24.1029 20.7182 19.0377 20.5497 26.9279 21.364 22.4665 20.4716 19.4691 20.0814 19.3812 19.4312 19.6168 19.7082 19.8789 24.8777 21.8069 21.3988 21.4441 21.3296 24.3832 30.0549 22.7771 23.2063 29.8744 22.2643 24.2363 30.4601 22.3411 23.5182 28.1852 23.7466 27.4421 22.5334 22.7172 24.0853 24.1619 27.5235 23.9838 24.2862 31.378601 23.1151 32.1553 27.4747 22.5149 26.5264 24.8378 25.366 28.5065 29.1278 29.0623 30.9679 30.828 32.0891 32.5273 33.6049 26.989 26.4873 31.624802 26.439 26.5433 26.0902 26.4414 35.3372 34.6036 25.6404 33.5019 32.9412 27.1773 27.1363 27.1788 27.1938 26.8573 32.2196 32.2868 36.5945 30.3461 30.138 29.5991 39.4733 39.2974 42.3266 42.0537 40.9887 37.5353 34.772 38.0728 40.8703 39.3237 39.7386 34.1466 38.606 41.299 40.9521 40.9311 48.9659 47.0242 47.1484 44.5156 51.64 69.2718 78.3511 45.9292 50.1078 52.8794 46.9565 46.7062 52.0096 62.1432 46.6802 62.7853 63.392303 46.2169 46.2961 46.3898 46.6357 48.2511 39.4897 51.3482 51.6041 51.4097 51.7659 49.9901 48.5227 43.6891 59.4841 52.6559 59.7124 59.8349 59.8188 53.8634 54.8836 62.319 61.5918 61.8489 62.9135 63.858 65.1735 65.206 64.2994 70.6629 69.8454 70.053 72.2694 69.328 68.4604 75.3138 78.4957 80.6284 83.9872 84.7375 86.6097 82.2471 78.174 77.831 77.6431 76.9445 76.7598 92.0995 102.3397 102.1087 104.0015 
PEPMASS=509.754
CHARGE=2+
102.9889 194.0
104.0928 1945.0
110.0932 3779.0
111.0975 700.0
112.1112 174.0
114.9766 479.0
116.0964 314.0
116.9736 489.0
117.012 765.0
118.9716 595.0
120.1056 4029.0
121.1096 469.0
122.1067 4600.0
123.1111 279.0
125.0178 171.0
129.1298 1009.0
129.9915 1006.0
130.0924 1695.0
131.0922 243.0
132.9852 161.0
134.9894 180.0
136.1044 1062.0
136.9822 187.0
137.1106 225.0
141.053 141.0
141.4902 429.0
144.1114 243.0
144.9944 169.0
147.1438 340.0
148.0039 223.0
150.5002 160.0
152.0356 686.0
154.1557 336.0
157.0385 383.0
158.1254 579.0
159.0125 469.0
159.1248 660.0
160.0613 941.0
160.1301 159.0
164.0357 378.0
166.9043 221.0
168.0319 259.0
169.1335 254.0
169.1668 185.0
170.0466 190.0
171.1865 242.0
172.0106 1707.0
172.1109 576.0
175.1223 1510.0
175.1555 1704.0
176.122 255.0
178.0779 198.0
179.134 228.0
182.0521 160.0
183.1876 2927.0
184.0128 301.0
184.0667 177.0
184.192 456.0
186.0302 1137.0
188.0074 223.0
190.0234 399.0
190.1263 1532.0
191.1277 242.0
193.0072 420.0
195.0037 2788.0
195.1175 172.0
196.0066 644.0
197.0005 2225.0
198.0323 1076.0
200.1142 179.0
202.0265 1722.0
202.9339 367.0
203.0355 426.0
203.9326 146.0
204.0434 1294.0
204.176 1027.0
204.9303 310.0
205.181 327.0
210.126 297.0
211.0256 171.0
211.187 640.0
213.017 891.0
214.024 218.0
215.0158 599.0
216.0452 1045.0
217.1419 703.0
218.1281 433.0
219.0044 286.0
220.0256 421.0
220.9472 331.0
221.9471 462.0
222.9453 271.0
223.9363 377.0
226.124 560.0
227.9283 136.0
227.9789 226.0
229.1675 161.0
231.0606 163.0
232.0264 2028.0
234.0013 312.0
235.1556 7524.0
236.004 157.0
236.1598 1299.0
237.1626 186.0
239.167 267.0
239.9847 229.0
241.9479 348.0
243.9799 180.0
244.0322 288.0
244.1406 212.0
245.1422 243.0
245.9492 5200.0
246.0443 191.0
246.953 403.0
247.9473 2036.0
248.9503 143.0
249.1493 352.0
249.9438 284.0
250.0401 4204.0
250.1496 165.0
251.0471 518.0
252.0334 1008.0
253.0414 188.0
254.0352 426.0
255.0676 156.0
256.1398 343.0
257.2051 171.0
257.9931 600.0
258.0623 264.0
258.2018 261.0
258.8624 137.0
259.2005 187.0
259.9697 1015.0
261.9708 290.0
262.0465 450.0
263.0391 701.0
263.1513 188.0
263.9637 2788.0
264.0594 3867.0
264.966 169.0
265.9627 1113.0
265.9893 1127.0
267.1626 484.0
267.9599 157.0
268.1663 267.0
269.1788 160.0
269.9854 271.0
270.1644 132.0
271.9823 217.0
272.0194 226.0
272.1858 170.0
273.1827 207.0
274.0466 329.0
275.1784 155.0
275.2276 157.0
275.9659 5815.0
276.9739 618.0
277.9669 2562.0
278.9674 187.0
279.9663 341.0
280.0106 505.0
281.1597 357.0
281.9806 484.0
282.1959 218.0
282.2431 308.0
285.1882 144.0
285.9792 387.0
286.8567 2993.0
288.8553 396.0
289.0614 1413.0
289.9852 3081.0
290.0511 512.0
290.9917 440.0
291.0569 467.0
291.982 1234.0
292.0598 922.0
293.0521 159.0
293.9799 2265.0
294.8946 209.0
294.9873 289.0
295.9794 970.0
296.214 333.0
297.2173 169.0
299.0313 459.0
300.0282 148.0
300.2183 133.0
300.9922 8290.0
301.991 919.0
302.9905 1006.0
303.2145 152.0
303.9935 169.0
304.225 132.0
304.9835 304.0
307.0712 17331.0
307.9993 729.0
308.0777 2369.0
309.0716 2617.0
310.0002 266.0
310.0751 209.0
311.9966 140.0
312.2192 437.0
315.0201 256.0
319.0091 2812.0
320.0108 217.0
321.003 283.0
323.1908 116.0
323.2946 2493.0
323.9815 955.0
324.2148 290.0
324.298 779.0
325.1507 152.0
325.2177 189.0
325.2941 140.0
325.9711 222.0
326.2145 151.0
326.271 323.0
327.2076 173.0
328.2515 158.0
334.016 138.0
335.0148 449.0
336.9775 2565.0
337.9829 268.0
338.2522 429.0
338.9757 1365.0
339.9814 150.0
341.3081 818.0
341.9961 850.0
342.3108 221.0
343.2322 212.0
343.9939 270.0
344.229 280.0
353.1218 194.0
354.9935 252.0
360.233 132.0
361.2599 1460.0
362.2654 235.0
367.2724 345.0
368.2726 238.0
376.2509 321.0
377.2565 272.0
379.2694 205.0
380.0623 489.0
381.0113 10756.0
381.2503 153.0
382.0159 1487.0
383.0106 5733.0
384.0148 739.0
385.0102 1216.0
388.337 178.0
389.3485 177.0
391.0406 186.0
396.3051 167.0
397.3013 147.0
399.0275 3912.0
400.0311 453.0
401.0241 1984.0
402.0267 176.0
403.0234 306.0
404.2542 589.0
405.2575 509.0
411.3373 104.0
416.9964 543.0
418.9933 518.0
420.9923 139.0
421.3105 688.0
422.3081 177.0
424.3054 450.0
425.314 405.0
426.3105 144.0
441.2666 191.0
443.0198 462.0
450.2583 249.0
452.3204 119.0
458.2954 542.0
459.3003 169.0
463.1079 184.0
475.1571 646.0
475.3268 2131.0
476.3237 665.0
478.2644 117.0
488.3832 129.0
490.3699 286.0
496.3597 318.0
508.2662 158.0
508.4332 291.0
508.5797 145.0
508.6816 181.0
509.352 120.0
509.3642 109.0
509.4346 139.0
510.3595 307.0
511.3401 262.0
511.4509 444.0
511.5071 551.0
512.3453 136.0
512.5056 190.0
513.5175 342.0
518.2707 210.0
528.3621 118.0
529.3501 416.0
530.3442 144.0
535.2964 300.0
537.0324 113.0
546.3744 10830.0
547.3765 4208.0
548.379 900.0
549.3802 196.0
553.3172 332.0
554.3086 109.0
556.1065 324.0
556.4641 315.0
557.3471 209.0
557.4658 588.0
558.4707 637.0
559.4656 157.0
590.3842 139.0
591.3722 279.0
610.4244 312.0
611.4255 576.0
612.4346 335.0
627.4495 111.0
642.4569 166.0
647.3976 229.0
648.4082 403.0
649.4083 241.0
659.4851 4763.0
660.4859 1883.0
661.477 527.0
669.471 149.0
671.5363 138.0
672.5259 194.0
739.532 445.0
740.5354 214.0
743.5833 168.0
747.518 189.0
748.5165 527.0
749.4754 142.0
749.5099 163.0
755.4283 112.0
756.5528 6849.0
757.5562 2828.0
758.5569 849.0
759.5557 158.0
858.6305 200.0
914.656 168.0
915.6722 544.0
916.6706 311.0
END IONS
BEGIN IONS
TITLE=Spectrum 1DGPLTGTYR.csv DRIFT_TIME=17.4815 16.4741 16.8377 16.6403 19.1236 19.5589 17.081 16.8046 19.4156 18.9148 18.4435 17.1543 20.7802 22.0734 18.1014 20.4259 21.5154 22.0096 22.3662 17.9873 20.1655 21.4004 19.828 25.935 22.4085 24.0784 25.3506 26.1386 19.4917 22.1953 22.4179 21.7596 21.8085 25.1924 30.1446 26.0311 23.62 21.3098 34.1486 23.6391 22.3218 23.725 23.4907 34.146 30.1309 23.6524 23.4516 23.7197 24.0201 23.8247 24.2655 29.007 27.2344 38.1374 33.2087 38.6981 28.8362 27.6012 31.358002 39.0804 29.1275 37.9343 45.8334 36.222 36.6928 35.5712 45.1735 45.8578 36.5379 48.4116 37.0805 51.9159 49.1334 55.9181 61.8061 62.5847 66.0442 65.9995 77.4965 81.8288 81.3709 71.8209 70.052 67.9858 66.8373 89.1097 89.3022 89.1121 102.6378 103.9326 112.3397 117.1854 121.0644 121.7383 119.8557 151.2669 
PEPMASS=490.2485
CHARGE=2+
115.0218 168.0
122.1076 161.0
129.1302 170.0
130.1137 458.0
132.991 634.0
134.9884 549.0
136.1063 165.0
147.1444 264.0
151.0058 207.0
153.0062 236.0
157.1686 142.0
159.1104 393.0
160.0634 365.0
166.9037 1585.0
175.1555 156.0
178.0793 216.0
183.1858 126.0
184.9188 262.0
185.2096 225.0
187.1122 258.0
195.9353 2512.0
204.0443 180.0
213.9523 1338.0
223.9357 2319.0
224.1518 131.0
224.9434 132.0
227.9324 123.0
229.168 472.0
231.9696 261.0
241.942 5309.0
242.9574 618.0
243.9524 199.0
245.9488 399.0
250.0418 461.0
252.018 269.0
252.038 151.0
259.9191 2761.0
259.9659 1606.0
260.2567 448.0
260.9274 299.0
260.9741 197.0
261.9151 2960.0
263.9197 293.0
269.9873 133.0
270.0374 148.0
277.9315 3233.0
278.9411 361.0
279.9304 3241.0
280.9409 145.0
281.9341 326.0
283.9737 149.0
286.8593 251.0
288.0043 652.0
298.2075 159.0
300.1515 147.0
300.2219 282.0
304.876 416.0
306.0205 789.0
307.0756 571.0
316.2217 182.0
322.893 309.0
323.9838 148.0
328.2603 167.0
334.0143 184.0
342.0025 211.0
345.032 221.0
347.3038 1103.0
348.3038 171.0
352.0264 113.0
369.2529 167.0
379.9634 210.0
387.2767 118.0
409.0929 140.0
415.2758 583.0
462.3593 826.0
463.3622 221.0
484.3147 432.0
485.3117 133.0
487.4777 125.0
489.4162 324.0
490.4143 111.0
496.3653 563.0
497.3677 169.0
502.3317 588.0
503.3408 142.0
575.4687 417.0
597.429 1094.0
598.4421 350.0
646.5202 508.0
647.5268 235.0
710.5409 365.0
711.5551 164.0
761.564 1303.0
762.5665 535.0
763.5873 188.0
874.674 494.0
END IONS
BEGIN IONS
TITLE=Spectrum 1EPISVSSQQMLK.csv DRIFT_TIME=15.956001 16.0413 16.063 15.976 16.1912 16.1036 16.2214 16.5056 16.2146 16.1891 16.1416 16.1904 16.2072 16.5419 16.2187 16.724 16.484 16.1887 16.7123 16.3742 16.5896 16.514 16.5196 16.4102 16.4382 17.2503 17.1039 16.5982 16.6831 16.7214 16.6928 16.7248 16.5497 16.2964 17.0038 16.7175 16.4215 17.056 18.6427 17.3752 17.0061 18.5871 18.7516 17.7808 17.111 17.9683 18.504 17.3742 18.9584 18.8646 18.9648 16.8903 21.8662 22.1669 17.0296 18.2031 16.9322 17.9541 19.6119 20.5139 20.5819 19.0502 21.2986 17.1434 24.731 19.8001 19.3502 18.7052 18.8721 18.564 19.0161 20.4654 20.1904 25.4793 25.1843 23.219 21.6638 25.7751 18.6785 23.3995 24.3028 19.4262 23.8821 19.3711 19.2967 34.0937 19.2125 19.4744 19.4256 19.1379 19.4984 24.7308 23.3053 26.2528 24.4205 22.7586 22.238 20.2124 22.1505 20.8872 27.934 30.0332 22.8738 23.0048 26.6706 21.6601 21.3561 21.2861 27.2768 22.3356 29.2269 22.229 22.2635 29.6344 22.685 35.1185 32.5356 26.3736 26.4961 31.446602 31.645699 26.3343 26.3982 26.4729 26.2236 25.7013 31.641502 32.3085 37.7795 32.4242 36.9801 31.3275 36.9214 26.9049 27.0403 26.5835 26.4446 26.5549 31.8252 33.0362 33.0677 33.2436 30.2095 25.7036 29.7375 29.6432 38.654 29.5553 31.011002 29.928 36.7608 35.741 36.6397 36.5077 34.4327 29.5596 36.4667 42.1239 31.556198 31.993698 44.1086 43.8134 49.0811 49.3779 35.9613 43.12 45.721 45.9515 33.4912 33.1941 32.9966 43.9641 43.1801 44.2172 44.2616 43.8191 54.009 54.2062 47.5512 38.8074 38.8871 38.3005 54.1617 50.137 47.9671 54.3316 32.0264 32.525 32.1668 32.5592 32.1994 37.9074 54.1465 54.5869 38.0706 50.4935 37.4174 49.6757 47.9451 34.2415 48.8356 40.8715 52.3561 34.3259 44.3517 44.6301 43.891 44.0901 52.2542 52.8141 59.4214 55.0022 59.7219 47.9248 44.6823 46.0134 56.0924 45.1087 56.7295 58.1084 47.9116 59.717 57.0971 65.8221 48.2453 67.3043 67.1892 67.5261 50.1402 67.5006 65.4018 75.4635 72.9985 70.1469 78.4012 90.8405 78.9948 76.9053 93.9259 70.9149 70.0305 52.6514 49.7197 75.1323 81.0873 81.0887 80.6447 77.7516 54.0804 83.7462 85.034 91.5172 87.6901 94.1323 93.3684 94.6413 93.9324 101.1297 114.0444 111.8778 112.6281 100.6577 116.2686 116.6358 116.0473 115.6199 136.4382 137.5005 138.5704 
PEPMASS=673.856
CHARGE=2+
101.0916 293.0
102.0755 730.0
104.0908 401.0
110.093 441.0
114.1127 285.0
122.1055 1036.0
129.1273 401.0
129.9917 163.0
130.1122 1030.0
136.1036 190.0
147.1411 587.0
154.156 336.0
159.1441 890.0
160.0614 565.0
171.1821 285.0
172.0104 489.0
173.1618 495.0
175.1535 177.0
178.0719 160.0
181.1327 2076.0
182.1378 205.0
183.1485 901.0
183.1862 717.0
184.1502 207.0
187.1397 214.0
196.0418 189.0
198.0365 188.0
199.1466 866.0
201.165 259.0
202.0251 914.0
204.0378 339.0
209.1328 2910.0
210.1361 478.0
214.9307 386.0
216.0443 525.0
216.1413 199.0
216.9276 353.0
220.0376 195.0
223.2023 137.0
223.9363 314.0
227.1473 394.0
233.9988 1987.0
235.9968 573.0
240.1487 210.0
241.9487 521.0
245.9479 192.0
248.2119 311.0
250.039 1579.0
252.0118 2188.0
254.0095 688.0
257.1757 160.0
259.9223 171.0
260.2471 1099.0
261.2564 161.0
261.9153 1015.0
263.0365 501.0
263.9108 277.0
265.0299 136.0
266.9522 150.0
269.9824 914.0
271.9792 529.0
274.1927 281.0
276.2268 143.0
279.9288 550.0
280.2209 203.0
284.9576 125.0
285.1766 150.0
286.8534 1040.0
287.9986 1469.0
288.8502 357.0
289.0561 597.0
289.9915 373.0
290.0807 253.0
294.2422 573.0
295.2396 141.0
298.2363 240.0
303.188 113.0
304.2126 159.0
304.868 766.0
305.1674 126.0
305.9685 147.0
307.0663 16178.0
307.9628 151.0
308.0732 3165.0
309.0675 3880.0
309.3376 123.0
310.0704 825.0
311.0664 1946.0
312.0697 271.0
313.0632 210.0
315.063 133.0
319.1117 127.0
320.2175 146.0
322.2416 601.0
323.1867 122.0
323.9763 1527.0
324.9812 126.0
325.9556 2035.0
327.9652 162.0
339.0641 191.0
340.2557 341.0
341.3158 167.0
341.9922 1263.0
342.9935 174.0
344.2332 226.0
345.0273 1304.0
347.0271 168.0
349.0157 148.0
355.095 386.0
361.9361 3994.0
362.2748 251.0
362.9528 277.0
363.9362 1581.0
364.2679 108.0
364.9399 117.0
369.3536 212.0
373.2638 203.0
380.06 148.0
381.0097 1210.0
381.2903 854.0
382.2937 190.0
383.0096 545.0
385.0049 257.0
385.9999 110.0
386.9989 169.0
391.0458 127.0
391.0843 179.0
391.2749 4027.0
391.3199 869.0
392.2801 1040.0
392.3212 219.0
393.2794 117.0
393.3167 119.0
399.0256 434.0
401.0287 192.0
405.0659 1283.0
406.064 316.0
407.0591 288.0
409.0977 103.0
409.2886 2361.0
410.2932 578.0
411.2973 111.0
416.9926 458.0
417.9248 156.0
418.9915 382.0
420.9878 122.0
423.3239 126.0
424.9839 120.0
425.0961 137.0
427.0237 176.0
427.307 518.0
428.3107 143.0
431.2725 531.0
432.2829 120.0
445.0794 160.0
447.0512 699.0
450.2484 397.0
451.3183 308.0
454.9531 344.0
456.95 182.0
462.3658 1067.0
463.3754 347.0
464.4337 609.0
465.4389 248.0
466.1246 175.0
475.2948 138.0
480.373 473.0
481.3847 155.0
483.0355 686.0
484.0434 111.0
485.0225 196.0
486.3298 307.0
489.3273 165.0
490.3625 1675.0
491.3653 502.0
492.3696 137.0
492.4713 3440.0
493.4737 913.0
498.3882 134.0
499.0683 374.0
500.0633 157.0
501.0686 200.0
501.3805 154.0
502.3729 362.0
508.3782 310.0
508.3817 284.0
508.9496 1716.0
509.9617 180.0
510.9459 577.0
514.9436 229.0
516.9424 244.0
519.0208 304.0
519.4032 907.0
520.4046 341.0
521.0172 171.0
530.3606 128.0
537.027 213.0
545.3169 179.0
546.2032 193.0
546.9028 634.0
547.1793 215.0
548.1295 275.0
548.3907 248.0
548.9001 198.0
556.0997 2583.0
557.1018 568.0
558.1015 622.0
560.1054 124.0
562.3437 670.0
563.3282 166.0
564.4354 190.0
577.4205 228.0
588.3975 110.0
592.0873 332.0
594.0585 1001.0
595.0734 146.0
595.4256 562.0
596.0668 199.0
596.4306 237.0
599.4018 153.0
613.1349 254.0
613.4407 115.0
617.4116 186.0
629.4736 144.0
630.0438 156.0
630.4588 261.0
