BEGIN IONS
TITLE=Spectrum 1AVVQDPALKPLALVYGEATSR.csv DRIFT_TIME=11.2327 11.0954 11.2467 11.2877 11.3053 11.2152 11.1838 11.2084 11.4142 11.3938 11.2818 11.3057 11.3742 11.3868 11.5282 11.4278 11.4115 11.3939 11.4783 11.526 11.5514 11.5259 11.8005 11.3961 11.4941 11.4749 11.7034 11.3977 11.4483 11.4203 11.9249 11.5248 11.4513 11.7193 11.8121 11.6564 12.5227 11.6673 11.9304 11.963 12.173 12.3018 12.3642 14.1219 12.7876 12.2712 11.9989 13.1035 17.1185 13.5998 12.8323 13.009 14.2083 13.9825 18.1917 18.5355 14.249 15.755299 12.9611 13.6096 13.0209 14.4728 13.7243 13.687 13.6752 13.7085 13.6745 17.567 16.7862 18.7349 15.239 18.2997 19.783 19.599 15.1602 15.198799 15.1591 22.0086 21.8057 20.0988 24.3672 18.5479 14.7778 18.6672 18.6516 18.8583 22.8668 19.1472 23.5215 23.061 27.9159 23.9961 24.9667 18.7417 18.96 17.0827 17.2025 27.7432 28.0495 25.3452 25.4582 26.1132 21.2288 21.3988 22.0663 27.9044 17.4149 27.8524 27.7657 27.2752 24.2225 22.0228 30.0183 22.6477 22.6797 23.1724 24.0207 24.9819 28.5944 30.5956 30.0181 19.6009 19.9191 19.6003 19.5093 20.5181 20.6421 20.4832 31.5904 36.677 20.721 31.654099 31.364899 25.4334 33.9093 12.1665 23.1014 28.2481 26.7224 33.2061 36.3793 22.5434 22.8163 22.7156 32.7224 22.3183 32.7422 22.3876 33.7856 33.6913 25.6314 12.3858 12.4018 12.4352 14.103 14.4255 39.35 12.4574 35.1352 12.3883 35.3433 16.8708 23.8479 12.9012 12.7844 26.0837 29.507 26.9542 28.7521 35.7897 12.6921 12.727 27.0182 24.1841 17.0119 23.846 24.1874 39.5579 13.1133 13.0303 12.9568 31.2485 31.2682 31.257797 31.355 30.9246 12.3551 12.447 12.5557 36.8741 17.505 24.4673 13.1079 16.5583 24.0781 16.3412 38.6908 16.3022 12.678 13.2251 12.7864 13.6863 13.0535 14.038 29.1903 26.382 38.4086 13.3812 12.8227 40.9501 13.2298 13.0953 39.9485 25.3318 19.322 13.2903 13.1956 13.9075 13.2342 14.0613 31.660698 31.8138 32.0603 42.0241 31.938599 32.4379 13.3695 13.2413 13.3126 13.1481 23.9222 13.3864 24.404 24.2961 24.2073 13.9523 13.7093 41.5286 29.2785 41.3496 34.1392 34.5235 33.9545 33.9696 34.2243 13.8183 33.6931 14.0576 14.0643 13.7996 13.6787 41.8689 49.6152 27.6314 42.0647 49.1924 27.9437 44.9139 29.2664 44.5869 33.4441 32.4248 34.1698 37.6797 33.8733 34.0405 13.4548 45.2386 14.5838 33.9676 14.538 25.9835 25.5887 26.1572 13.5153 35.6065 35.6867 35.6535 13.9661 47.3066 15.430599 35.5202 15.499001 35.4539 32.237 31.7705 31.8919 13.9589 47.689 14.4519 45.9689 31.318298 34.8568 34.1817 21.856 21.6341 21.6462 48.1845 15.1651 24.0597 47.5861 49.2 35.1625 35.0449 24.9277 35.0363 24.71 24.5766 37.2744 37.1414 36.929 36.7354 36.8136 55.0482 25.5078 37.1372 27.7473 36.6327 29.6031 50.2078 50.0648 25.9714 16.1219 29.853 29.7685 39.5052 30.0417 36.3404 36.1107 26.9213 26.6832 34.8453 40.7009 34.9557 39.893 35.3303 39.694 39.6372 35.7345 38.6757 39.3564 38.7201 38.422 39.414 37.9977 33.3963 33.265 37.6188 34.6232 36.8169 43.0559 36.4518 42.3951 43.1926 53.8564 38.1202 38.001 37.9913 38.7771 38.0164 59.5954 58.9422 59.0429 60.6569 60.3877 36.75 41.0008 38.9907 44.945 41.0839 40.8724 40.6719 40.6259 40.1006 42.1578 43.4261 41.6252 38.7942 40.8734 40.8762 40.8496 40.8942 41.0429 44.3263 43.6879 43.9393 44.0618 44.7896 43.6201 43.7906 73.5988 72.7011 41.951 47.9382 46.1144 45.9357 46.9504 43.1448 43.7172 43.6749 77.0844 41.9786 42.8735 47.946 48.8424 47.2514 44.7542 45.2844 45.7819 45.4801 45.0624 46.3959 46.4728 46.386 45.93 45.7688 45.8648 46.0684 45.5635 48.7885 48.492 47.7681 86.8976 87.4537 49.6081 49.3135 49.0084 49.3493 48.8794 50.0996 49.447 53.0859 55.2587 96.957 97.1824 54.8706 54.619 55.8682 55.1806 56.1751 56.2237 56.4997 56.4708 56.7204 51.2785 116.8032 133.2865 133.1303 137.1663 130.0772 131.6484 138.8693 142.99 137.6125 158.8496 162.9964 155.9872 
PEPMASS=1099.615
CHARGE=2+
55.0526 297.0
56.0479 492.0
57.0322 253.0
70.0621 1812.0
72.0771 3474.0
73.0814 196.0
84.0399 658.0
84.0760 934.0
86.0913 324.0
101.0677 244.0
104.0655 689.0
117.0986 205.0
122.0753 1485.0
129.0962 1314.0
130.0955 183.0
136.0705 166.0
141.0957 842.0
143.1111 1001.0
154.1164 182.0
169.0886 1831.0
170.0923 193.0
171.1050 1060.0
171.9689 306.0
172.1056 186.0
175.1121 426.0
181.0537 228.0
183.1406 188.0
185.0708 278.0
185.0898 292.0
196.0536 206.0
197.1557 422.0
198.0775 160.0
199.0638 175.0
200.1320 205.0
201.9769 575.0
203.9912 173.0
211.1381 189.0
213.0764 815.0
215.9900 276.0
216.0888 241.0
226.0718 191.0
227.0559 583.0
228.1242 651.0
242.1749 668.0
244.0818 1119.0
249.9765 1045.0
251.9759 126.0
252.1633 150.0
254.1747 137.0
262.1417 228.0
262.9786 287.0
266.1072 211.0
270.1712 306.0
281.0919 458.0
282.1700 1100.0
283.1776 155.0
284.1108 1167.0
287.1976 161.0
287.9298 331.0
288.9878 464.0
291.0315 154.0
300.9169 131.0
306.9929 10444.0
307.9971 1737.0
308.9927 1692.0
309.9976 202.0
310.9890 366.0
324.1080 614.0
326.1211 620.0
327.1875 138.0
338.9692 246.0
341.1319 213.0
343.1462 2975.0
344.1495 525.0
344.9406 1936.0
345.9431 246.0
346.9388 344.0
353.2118 176.0
355.1874 134.0
363.1849 245.0
369.1895 150.0
371.0431 269.0
377.8672 182.0
380.9173 805.0
382.9157 462.0
382.9988 341.0
384.1710 138.0
384.9179 123.0
394.1554 339.0
395.1482 468.0
395.2513 391.0
397.1924 531.0
398.2215 406.0
398.9320 284.0
400.9220 199.0
408.9992 3179.0
410.0064 349.0
410.2584 2604.0
411.2638 620.0
412.1645 797.0
413.1713 139.0
414.1823 173.0
416.8964 454.0
418.8932 326.0
420.9364 148.0
434.2196 1217.0
434.9103 758.0
435.2191 324.0
438.2557 123.0
442.2119 300.0
444.9671 135.0
446.9458 359.0
452.2705 318.0
454.8408 706.0
456.8364 425.0
458.9940 611.0
460.9947 118.0
466.0165 171.0
466.2058 119.0
467.2348 173.0
468.2277 250.0
472.8499 1617.0
473.8547 239.0
474.8418 271.0
476.8423 156.0
490.8608 2398.0
491.8684 413.0
492.8619 445.0
494.2043 147.0
494.3101 360.0
494.8559 206.0
495.2388 340.0
496.2261 201.0
496.9360 238.0
497.2554 192.0
497.9378 374.0
498.9547 293.0
501.9913 121.0
503.9771 154.0
507.2417 159.0
507.3114 140.0
508.8264 1501.0
509.8304 195.0
510.8242 983.0
511.2310 536.0
511.8284 145.0
512.2317 174.0
512.8187 202.0
513.2476 1889.0
514.2509 558.0
515.8982 135.0
515.9193 347.0
516.9146 375.0
517.9108 190.0
521.6429 188.0
522.1407 157.0
523.3507 168.0
524.3658 138.0
525.2477 761.0
525.3717 182.0
526.2540 215.0
530.1436 163.0
532.8724 160.0
534.8977 290.0
535.8969 230.0
536.8996 576.0
537.9632 246.0
538.8863 124.0
538.9594 156.0
539.2638 246.0
543.3534 151.0
544.3582 158.0
545.9138 129.0
546.7712 1172.0
547.6820 113.0
547.7801 137.0
548.7711 345.0
551.3337 167.0
552.8776 262.0
553.8809 312.0
554.8778 179.0
555.9685 2506.0
556.9703 1037.0
557.9673 1807.0
558.9720 397.0
559.9542 590.0
561.8833 469.0
562.3879 225.0
562.8911 168.0
563.2640 182.0
563.6645 132.0
564.7786 198.0
565.8865 139.0
566.6457 210.0
566.7818 125.0
567.1404 270.0
567.2849 199.0
567.6477 184.0
570.3391 210.0
570.8535 178.0
571.3361 307.0
571.8637 244.0
572.3404 173.0
572.8583 160.0
572.8662 141.0
574.8527 373.0
579.2434 114.0
579.8747 286.0
580.8682 487.0
581.3119 214.0
581.3677 206.0
581.8585 159.0
582.2942 166.0
582.7476 143.0
584.7119 132.0
588.3236 204.0
589.3249 288.0
589.8381 200.0
590.3235 228.0
590.8378 146.0
593.9165 2586.0
594.9165 729.0
595.9215 1017.0
596.2978 182.0
596.9176 219.0
597.9057 402.0
598.8444 681.0
599.3525 236.0
599.8485 436.0
600.3479 164.0
600.7574 2781.0
600.8478 191.0
601.7597 470.0
602.7562 551.0
604.7597 261.0
607.2987 183.0
608.3066 163.0
610.3013 390.0
610.8202 203.0
611.2975 129.0
612.9879 2061.0
613.8582 158.0
613.9897 530.0
614.9906 536.0
615.8554 138.0
616.8350 331.0
616.9895 218.0
617.3297 153.0
617.8364 452.0
618.3183 155.0
618.8270 267.0
620.2762 968.0
620.3887 149.0
620.6913 172.0
621.2728 356.0
622.4014 150.0
622.6915 184.0
624.3137 443.0
624.8436 194.0
625.3235 177.0
629.8949 187.0
631.8687 484.0
632.9206 291.0
633.0779 109.0
633.9104 739.0
634.9098 193.0
635.2914 129.0
635.3294 149.0
635.8072 242.0
635.9137 153.0
636.8142 156.0
638.7027 321.0
638.8235 255.0
639.3198 230.0
644.8055 223.0
650.9270 11585.0
651.9378 2825.0
652.9269 2824.0
653.2684 124.0
653.3347 200.0
653.7971 216.0
653.9373 562.0
654.7851 153.0
654.9247 728.0
656.6683 219.0
658.6737 287.0
660.6758 111.0
662.7961 201.0
663.3242 153.0
663.8049 185.0
664.3019 147.0
664.8044 211.0
667.8319 317.0
669.8168 246.0
674.6435 132.0
675.1205 143.0
675.6196 116.0
681.3312 1036.0
681.7772 128.0
682.1752 195.0
682.3338 517.0
683.3308 107.0
683.8813 802.0
684.8812 426.0
685.7217 331.0
685.8780 560.0
686.2266 243.0
686.7351 126.0
686.9061 3837.0
687.9045 912.0
688.8917 3146.0
689.8944 705.0
690.8833 669.0
691.4171 193.0
691.7043 136.0
691.8929 175.0
692.7023 122.0
692.8663 272.0
694.3511 116.0
695.3527 292.0
696.3516 130.0
696.7632 122.0
699.7544 148.0
702.8606 937.0
703.3643 791.0
703.8086 183.0
703.8631 249.0
705.7949 450.0
707.7856 190.0
711.7717 112.0
712.2750 110.0
721.8232 704.0
722.8872 509.0
723.8098 233.0
724.8660 654.0
725.8046 111.0
725.8720 144.0
726.8588 228.0
740.7277 121.0
740.8978 1168.0
741.7597 343.0
741.8998 235.0
742.8908 245.0
743.7638 311.0
744.9080 117.0
748.5985 167.0
750.5952 164.0
757.8023 127.0
759.3951 158.0
759.7786 371.0
760.8393 346.0
761.7819 126.0
762.8380 305.0
764.8265 107.0
766.3175 106.0
778.8364 4799.0
779.8484 1116.0
780.8380 1211.0
781.8320 230.0
782.8469 357.0
783.3346 1169.0
784.3338 472.0
785.3343 143.0
794.4027 660.0
795.4142 335.0
795.4191 144.0
795.7410 576.0
797.7353 317.0
798.7868 133.0
814.8156 447.0
816.7913 1501.0
817.7931 378.0
818.8024 440.0
819.7985 139.0
820.7861 186.0
831.7268 114.0
833.6860 240.0
834.4424 109.0
843.4419 3090.0
843.9402 2903.0
844.4467 1561.0
844.9482 676.0
845.4456 227.0
852.7652 1714.0
853.7538 390.0
854.7651 902.0
855.7774 208.0
856.7633 387.0
858.7541 181.0
871.6753 110.0
882.3949 712.0
883.3939 406.0
887.6720 147.0
888.7440 322.0
889.7219 112.0
890.7062 433.0
892.7124 286.0
900.9554 366.0
901.4498 390.0
901.9672 166.0
903.5633 131.0
906.7460 301.0
908.7295 112.0
926.6831 425.0
928.6887 277.0
930.6759 139.0
942.7185 128.0
944.6933 1440.0
945.6881 246.0
946.6982 360.0
948.6823 156.0
956.4758 283.0
956.9655 246.0
957.4625 149.0
961.6107 160.0
964.9828 466.0
965.4793 591.0
965.9857 262.0
966.4624 143.0
980.6628 337.0
981.6704 117.0
982.6505 314.0
995.4833 514.0
996.4803 324.0
1014.5065 601.0
1015.0122 824.0
1015.5086 504.0
1016.0158 243.0
1018.6200 562.0
1019.6109 122.0
1020.6144 290.0
1054.5954 123.0
1064.5550 132.0
1066.5154 534.0
1067.5164 296.0
1090.5543 122.0
1091.0420 149.0
1091.5552 221.0
1092.5436 179.0
1099.5563 3092.0
1100.0560 3776.0
1100.5610 2588.0
1101.0624 1290.0
1101.5645 487.0
1110.5569 184.0
1179.5932 271.0
1276.6286 3319.0
1277.6329 2238.0
1278.6401 809.0
1278.6501 856.0
1279.6454 292.0
1404.7235 691.0
1405.7425 479.0
1406.7389 252.0
1685.8885 606.0
1686.8793 651.0
1686.8983 556.0
END IONS
BEGIN IONS
TITLE=Spectrum 1DFPIANGER_01.csv DRIFT_TIME=16.4366 16.0668 16.1296 15.9522 16.1348 16.3723 16.0212 16.3292 16.3657 16.299 16.1896 16.1564 16.1464 16.1072 16.4333 16.1523 16.3531 16.1059 16.0457 16.4886 16.1854 16.2811 16.2977 16.2125 17.9579 16.0404 16.0131 16.5339 16.2991 16.7011 16.0351 16.3732 16.2228 16.5265 16.1835 16.614 16.2637 16.5027 16.2424 16.5538 16.9455 16.5128 16.4427 16.504 16.5172 16.4946 16.6506 16.2569 16.4465 16.3097 16.2334 16.4799 16.4185 16.6821 16.5521 16.7076 16.8373 16.5955 16.9013 16.6262 16.8732 16.5744 16.4824 16.6092 16.7425 16.2777 16.6438 16.6755 17.2056 16.6546 16.8199 18.5099 16.7381 19.3351 16.7173 16.7993 17.8106 16.8006 17.6295 17.0892 17.4887 16.8521 16.8362 16.8052 17.021 17.0958 17.1398 16.8267 16.7905 18.158 18.2876 17.9338 17.8886 18.6295 17.5159 17.1394 17.8614 17.0721 17.1975 18.6513 17.5717 18.1964 17.5603 17.5171 17.2569 19.0292 17.2014 18.0792 18.1215 18.3299 18.4372 18.6563 17.9348 18.4628 18.5383 18.6872 17.5982 18.5492 17.2752 17.7869 17.382 17.4934 17.2737 17.5105 17.9576 18.5166 19.4338 18.8512 18.7492 18.8277 18.7924 18.7414 18.8859 18.4407 18.2679 18.2221 18.2693 19.0391 18.0341 18.6576 19.1025 18.3347 18.8041 19.0551 18.5764 16.5259 18.6705 16.8789 20.7183 19.1509 20.8341 19.4879 19.69 19.6526 16.2689 17.9569 20.7519 18.9054 19.0028 18.8734 18.9546 16.4157 18.8686 16.4758 16.4383 18.8662 19.9725 16.3481 20.0648 19.2964 24.4505 25.3642 17.1809 17.4485 20.5004 20.8615 18.6702 17.4445 18.0477 16.3858 18.7492 19.148 19.6988 19.6983 20.0398 19.107 19.6615 19.8557 19.297 19.4946 19.279 19.3982 19.5006 22.3458 22.1117 16.3585 17.9843 16.3841 19.8251 16.5005 19.7123 24.1029 20.7182 16.607 19.0377 20.5497 26.9279 21.364 22.4665 18.6781 20.4716 18.1457 18.6243 19.4691 20.0814 19.3812 16.6671 19.4312 19.6168 19.7082 19.2901 19.8789 24.8777 19.325 19.4094 16.7782 21.8069 16.3676 16.7568 16.3304 21.3988 16.3403 21.4441 16.5242 21.3296 18.7838 18.2625 24.3832 30.0549 22.7771 23.2063 29.8744 18.4899 20.173 22.2643 24.2363 30.4601 16.5366 22.3411 16.5088 23.5182 28.1852 16.4191 16.7044 23.7466 27.4421 16.5826 19.5965 22.5334 16.4745 22.7172 18.8848 16.2807 16.2563 24.0853 19.6772 24.1619 27.5235 19.7335 23.9838 19.5743 24.2862 18.6808 31.378601 23.1151 32.1553 18.3964 27.4747 19.0696 22.5149 26.5264 21.5972 21.4411 16.4699 21.6298 16.5379 21.4892 16.7473 21.4102 16.7099 21.3657 16.4888 19.9284 16.484 24.8378 16.4659 16.6108 25.366 20.288 17.2149 19.9555 16.5369 19.7271 28.5065 16.9932 29.1278 29.0623 15.9307 22.6192 16.4406 22.5504 22.5632 16.5646 16.2839 16.6806 16.663 22.9252 30.9679 20.086 30.828 20.2166 17.1079 20.5157 17.2257 17.341 20.1003 20.7806 18.713 21.2336 16.4809 18.9196 16.5461 16.4903 32.0891 32.5273 16.8403 16.9138 17.2671 33.6049 17.2109 17.1826 26.989 17.2021 16.6629 26.4873 31.624802 21.067 26.439 20.5531 26.5433 21.3119 26.0902 21.0267 26.4414 20.7284 17.1812 20.8692 16.8835 21.076 35.3372 34.6036 17.4362 25.6404 17.1667 17.5669 22.0875 18.0734 17.8971 16.4985 16.7867 16.5774 33.5019 32.9412 16.525 17.4927 27.1773 17.1822 17.4958 21.6956 27.1363 17.4345 17.2498 27.1788 18.0206 18.4786 27.1938 21.5594 26.8573 20.913 32.2196 17.4735 32.2868 17.9501 17.9596 17.7413 16.6199 17.6436 16.6102 17.6132 16.8416 36.5945 18.4538 18.2236 18.1321 17.6796 24.1456 30.3461 17.7073 17.718 23.944 17.7061 30.138 18.8294 29.5991 18.3411 39.4733 18.4784 16.7408 18.2431 39.2974 18.1356 19.732 19.2659 42.3266 42.0537 17.8769 17.7145 40.9887 17.5792 24.4062 16.3205 17.7016 16.6939 25.9906 19.6118 26.019 19.5616 19.3847 25.9455 18.3034 18.9418 22.6995 25.9244 19.2744 24.7596 18.7751 19.0283 24.7647 17.8746 17.9139 19.849 24.4392 17.921 18.3602 18.2522 18.0279 18.462 37.5353 20.2726 34.772 20.7936 20.8454 20.0649 19.7654 24.5747 26.7244 18.2951 18.8787 18.6372 18.7791 26.9946 18.7929 38.0728 20.6503 26.4568 20.6088 40.8703 20.696 20.3556 20.6263 27.0857 19.7201 19.5384 19.3671 19.0276 19.3154 39.3237 39.7386 19.5426 19.8518 19.9197 19.7871 34.1466 19.6941 19.8093 19.8028 19.5924 19.9938 20.6653 20.5375 20.0265 19.9286 20.0628 20.0199 27.9922 27.863 28.0202 38.606 18.6843 41.299 27.9152 40.9521 27.7741 40.9311 21.3566 21.1591 20.7842 20.4592 20.6183 20.7318 20.4289 20.6639 21.6887 22.8359 21.9001 21.8986 21.828 48.9659 21.3005 21.7931 22.7453 22.1849 47.0242 21.8656 29.0822 21.8862 21.5334 29.0605 21.5342 21.2762 29.2827 21.241 29.0166 47.1484 21.0763 20.7128 23.7725 23.2866 23.2427 22.5907 22.3763 22.6478 22.3892 22.6076 21.8565 21.1789 21.1976 21.3253 25.0633 44.5156 24.9635 51.64 69.2718 78.3511 24.1749 31.958199 23.6195 45.9292 50.1078 52.8794 29.742 23.59 32.017 23.5735 46.9565 23.1683 31.862602 23.2366 46.7062 52.0096 62.1432 22.2513 31.0136 22.6621 46.6802 62.7853 22.3722 31.283302 63.392303 46.2169 46.2961 46.3898 46.6357 48.2511 39.4897 51.3482 34.0533 51.6041 51.4097 33.935 51.7659 49.9901 48.5227 43.6891 59.4841 52.6559 59.7124 59.8349 59.8188 53.8634 54.8836 33.8293 62.319 61.5918 61.8489 62.9135 63.858 65.1735 65.206 64.2994 70.6629 31.626602 69.8454 70.053 72.2694 69.328 68.4604 34.0857 75.3138 78.4957 80.6284 83.9872 84.7375 86.6097 82.2471 78.174 77.831 77.6431 76.9445 76.7598 92.0995 102.3397 102.1087 104.0015 
PEPMASS=509.754
CHARGE=2+
102.9662 194.0
104.0699 1945.0
110.0690 3779.0
111.0731 700.0
112.0865 174.0
114.9513 479.0
116.0709 314.0
116.9479 489.0
116.9863 765.0
118.9454 595.0
120.0792 4029.0
121.0830 469.0
122.0798 4600.0
123.0840 279.0
124.9903 171.0
129.1014 1009.0
129.9629 1006.0
130.0638 1695.0
131.0634 243.0
132.9559 161.0
134.9597 180.0
136.0745 1062.0
136.9521 187.0
137.0804 225.0
141.0220 141.0
141.4591 429.0
144.0797 243.0
144.9625 169.0
147.1114 340.0
147.9713 223.0
150.4671 160.0
152.0022 686.0
154.1218 336.0
157.0040 383.0
158.0906 579.0
158.9775 469.0
159.0898 660.0
160.0261 941.0
160.0949 159.0
163.9996 378.0
166.8676 221.0
167.9949 259.0
169.0963 254.0
169.1296 185.0
170.0092 190.0
171.1488 242.0
171.9728 1707.0
172.0730 576.0
175.0838 1510.0
175.1170 1704.0
176.0833 255.0
178.0387 198.0
179.0946 228.0
182.0120 160.0
183.1473 2927.0
183.9723 301.0
184.0262 177.0
184.1515 456.0
185.9893 1137.0
187.9660 223.0
189.9816 399.0
190.0845 1532.0
191.0857 242.0
192.9647 420.0
194.9608 2788.0
195.0746 172.0
195.9635 644.0
196.9572 2225.0
197.9887 1076.0
200.0702 179.0
201.9821 1722.0
202.8893 367.0
202.9908 426.0
203.8877 146.0
203.9985 1294.0
204.1311 1027.0
204.8852 310.0
205.1359 327.0
210.0798 297.0
210.9792 171.0
211.1405 640.0
212.9701 891.0
213.9769 218.0
214.9685 599.0
215.9977 1045.0
217.0941 703.0
218.0801 433.0
218.9562 286.0
219.9772 421.0
220.8986 331.0
221.8983 462.0
222.8963 271.0
223.8870 377.0
226.0743 560.0
227.8782 136.0
227.9287 226.0
229.1171 161.0
231.0098 163.0
231.9754 2028.0
233.9498 312.0
235.1039 7524.0
235.9521 157.0
236.1078 1299.0
237.1104 186.0
239.1144 267.0
239.9319 229.0
241.8947 348.0
243.9262 180.0
243.9785 288.0
244.0869 212.0
245.0883 243.0
245.8951 5200.0
245.9902 191.0
246.8987 403.0
247.8928 2036.0
248.8955 143.0
249.0945 352.0
249.8888 284.0
249.9851 4204.0
250.0946 165.0
250.9919 518.0
251.9780 1008.0
252.9857 188.0
253.9793 426.0
255.0115 156.0
256.0834 343.0
257.1485 171.0
257.9363 600.0
258.0055 264.0
258.1450 261.0
258.8055 137.0
259.1435 187.0
259.9125 1015.0
261.9132 290.0
261.9888 450.0
262.9812 701.0
263.0934 188.0
263.9056 2788.0
264.0013 3867.0
264.9077 169.0
265.9042 1113.0
265.9308 1127.0
267.1038 484.0
267.9009 157.0
268.1073 267.0
268.9542 267.0
269.1196 160.0
269.8899 225.0
269.9260 271.0
270.1050 132.0
271.9225 217.0
271.9596 226.0
272.1259 170.0
273.1226 207.0
273.8945 181.0
273.9863 329.0
275.1179 155.0
275.1670 157.0
275.9052 5815.0
276.9130 618.0
277.9057 2562.0
278.4905 914.0
278.9060 187.0
278.9940 168.0
279.4887 196.0
279.9047 341.0
279.9490 505.0
280.4739 245.0
281.0978 357.0
281.9186 484.0
282.1338 218.0
282.1810 308.0
283.9074 4554.0
284.9104 280.0
285.1255 144.0
285.9163 387.0
286.7936 2993.0
286.8819 379.0
287.9381 2059.0
288.0334 208.0
288.7918 396.0
288.9978 1413.0
289.9214 3081.0
289.9873 512.0
290.9277 440.0
290.9929 467.0
291.9178 1234.0
291.9955 922.0
292.9876 159.0
293.9152 2265.0
294.8297 209.0
294.9224 289.0
295.9143 970.0
296.1488 333.0
297.1519 169.0
297.4650 678.0
297.9662 295.0
298.4581 200.0
298.9655 459.0
299.4482 243.0
299.9622 148.0
300.1523 133.0
300.9260 8290.0
301.4437 131.0
301.9246 919.0
302.9238 1006.0
303.1478 152.0
303.9266 169.0
304.1581 132.0
304.8047 2031.0
304.9164 304.0
305.9478 858.0
306.8034 287.0
307.0036 17331.0
307.9315 729.0
308.0099 2369.0
308.4493 252.0
309.0036 2617.0
309.9320 266.0
310.0069 209.0
311.0021 505.0
311.9280 140.0
312.1505 437.0
312.8367 288.0
313.8342 519.0
314.1577 120.0
