BEGIN IONS
TITLE=Spectrum 1GLYPHOS_DFYELEPHK_1176_01.csv DRIFT_TIME=16.5173 16.4813 16.3994 16.1715 16.383 16.9007 16.0681 16.7062 19.2262 16.4919 16.1997 16.5152 17.3818 16.4906 16.8822 16.4499 17.3696 16.7661 17.2631 16.8826 22.1403 18.2772 18.1899 16.1511 20.4043 17.436 18.1876 17.5706 21.7975 18.0749 20.9337 19.8324 18.5236 19.3645 20.6753 20.1721 19.1207 19.3029 21.1165 23.0964 22.2786 21.1575 22.0649 24.1984 26.3842 24.2034 23.3266 24.2779 25.1609 24.8828 25.1911 24.3574 25.7327 26.2609 26.1007 29.1982 26.0181 28.4822 28.6825 28.9235 39.1755 39.72 28.3764 26.1972 32.2181 31.604301 29.1707 29.8494 30.84 30.8054 30.8118 32.1494 28.2522 28.4319 30.6618 30.8557 31.8624 33.6811 33.4931 33.6681 32.6931 41.8405 34.5862 31.3153 35.1259 32.0491 37.0332 35.3134 35.6341 27.3428 33.3508 45.3826 45.5245 37.5119 39.5084 29.8627 32.8763 32.6753 33.2515 41.3525 38.2192 38.0579 34.5692 37.7854 34.3692 38.853 39.4769 55.4577 43.818 49.2164 38.5242 36.7617 33.9085 35.6987 39.3148 44.2061 53.6274 39.8137 42.2897 39.0021 50.4826 45.0495 35.9896 44.3466 44.1514 43.0924 43.263 53.9543 48.7558 43.6663 50.6672 50.7154 47.2805 51.3859 45.957 44.708 42.8383 58.9586 49.4132 55.2193 48.9678 47.6665 72.1248 57.289 66.9646 62.0645 48.0847 61.9594 42.6975 60.3483 62.0168 48.1851 47.4702 53.831 47.0433 47.7427 75.6739 56.7186 78.2328 48.3819 64.658 64.0108 66.1626 65.3517 70.9007 83.3809 76.8944 80.5956 81.2534 81.788 84.3265 102.2268 103.0768 97.7894 106.7527 124.1169 125.4693 129.5659 135.2102 
PEPMASS=589.283
CHARGE=2+
61.0411 241.0
70.0655 463.0
72.0815 205.0
80.0125 373.0
84.0796 999.0
86.0966 630.0
87.0453 327.0
89.0591 1321.0
98.9866 176.0
104.0705 294.0
110.0267 1671.0
110.0704 475.0
120.0802 1330.0
121.0639 715.0
122.0811 2757.0
123.0840 183.0
129.1021 441.0
130.0640 229.0
130.0863 215.0
133.0856 1582.0
134.9638 303.0
136.0749 4730.0
137.0792 475.0
140.0444 146.0
144.9927 803.0
147.0772 277.0
147.1133 383.0
149.0943 149.0
152.9731 211.0
156.0779 141.0
159.0189 1333.0
163.0028 195.0
165.0895 606.0
166.0559 277.0
175.0837 365.0
175.1195 885.0
177.1134 394.0
178.0531 332.0
179.0187 208.0
187.1427 124.0
190.0845 194.0
191.1021 144.0
193.1210 119.0
194.9944 2660.0
196.0037 230.0
196.9915 682.0
205.0224 753.0
206.0354 220.0
207.1246 394.0
209.1177 194.0
211.1198 203.0
213.0034 185.0
214.9167 689.0
215.1379 160.0
217.0974 212.0
230.9907 189.0
232.9291 626.0
235.1058 7083.0
236.1101 1112.0
237.1088 125.0
247.2052 835.0
248.2119 134.0
249.9841 331.0
250.9375 136.0
253.1301 352.0
253.9640 166.0
255.0268 219.0
255.1068 321.0
255.9574 115.0
256.0333 546.0
258.0340 210.0
258.1423 138.0
258.9729 131.0
261.0272 121.0
263.1031 677.0
264.1045 157.0
264.9194 530.0
265.1168 665.0
266.1629 307.0
272.1358 115.0
273.0115 873.0
273.2211 115.0
274.0193 249.0
274.9474 729.0
282.1381 148.0
282.9264 234.0
283.1372 282.0
284.1696 1186.0
285.1705 179.0
286.9329 337.0
289.9835 205.0
291.2306 1472.0
292.2326 268.0
293.1114 845.0
304.8945 122.0
305.9524 162.0
307.0082 1168.0
308.0072 152.0
309.0016 150.0
312.1462 294.0
316.9351 229.0
317.0828 140.0
318.9207 111.0
319.0741 169.0
321.0483 191.0
324.9566 135.0
334.9496 132.0
335.2520 135.0
341.0322 108.0
342.1674 120.0
342.9379 255.0
344.8773 147.0
347.9721 148.0
348.8214 152.0
348.9607 113.0
349.8957 238.0
353.0832 152.0
355.0661 232.0
357.9673 123.0
360.9454 123.0
363.2101 348.0
364.1621 190.0
366.8357 284.0
366.9063 144.0
367.9075 474.0
368.9015 269.0
369.9096 167.0
371.0962 197.0
372.1779 119.0
375.9740 118.0
381.2209 3855.0
382.2244 863.0
382.9121 135.0
383.2343 110.0
384.9134 134.0
385.9195 146.0
386.9080 415.0
406.2030 116.0
408.9264 161.0
409.1625 238.0
409.9295 111.0
410.9225 529.0
411.1595 265.0
411.1633 183.0
411.1644 299.0
411.2915 358.0
411.9340 126.0
412.2674 391.0
412.8574 113.0
413.1135 213.0
413.2776 107.0
423.0776 539.0
424.0772 109.0
426.1610 294.0
426.9303 258.0
428.9329 453.0
429.1718 321.0
447.2590 309.0
471.1875 239.0
474.8360 118.0
492.2532 424.0
493.2551 192.0
510.2648 377.0
511.2600 137.0
555.2115 127.0
573.3957 179.0
591.2841 1065.0
592.3069 514.0
593.3190 152.0
623.3463 534.0
624.3562 214.0
752.3940 809.0
753.3918 346.0
754.3641 139.0
812.3207 173.0
915.4506 675.0
916.4533 370.0
916.4592 369.0
1055.4394 152.0
END IONS
BEGIN IONS
TITLE=Spectrum 1GLYPHOS_DYYFALAHTVR_1356.csv DRIFT_TIME=16.6173 16.6485 16.1042 16.4023 16.8392 16.2601 16.7323 16.6428 16.4357 16.4198 17.358 16.4866 16.9008 16.9016 17.5465 17.0869 16.893 18.1769 17.9456 20.1976 17.5164 20.3389 17.5927 18.3794 20.0447 21.1058 18.7843 21.0708 19.889 22.9253 20.6753 18.7979 20.3314 21.5406 20.2369 20.3535 20.0809 18.9046 19.3504 23.8079 22.3703 22.0382 22.4069 26.5515 24.0454 24.3413 21.9358 29.5791 25.7118 25.8065 28.0782 26.9728 29.6042 25.6232 25.8725 29.0744 27.945 29.2791 29.1385 31.1251 34.3305 29.3729 39.1074 29.0551 28.2444 31.4234 31.6917 31.375801 30.2573 34.6932 31.904999 31.2164 30.2607 36.6658 35.0039 32.9814 34.6034 37.4537 35.5941 35.6271 33.9628 33.4214 34.1116 36.5646 36.5958 36.0707 35.3992 34.0079 31.1572 45.1571 33.9169 47.0837 31.889801 38.9966 39.4285 34.1077 33.2686 33.1905 33.1878 39.1566 39.6883 55.246 39.4199 34.9202 44.0111 43.3152 40.9183 43.9802 38.8411 38.3966 38.283 43.8528 51.6959 46.4473 37.1702 38.3195 41.8168 39.6225 48.6108 43.8396 42.1672 39.3823 39.8216 40.1584 44.0795 51.3723 42.6132 51.3511 50.8017 50.2549 43.0212 51.8075 44.9692 41.7904 46.5896 44.1946 55.6932 52.7597 50.354 53.4453 57.9861 46.0833 55.4789 45.8181 52.9247 46.8371 48.9782 46.2423 47.0799 62.2503 51.298 55.0139 48.0749 53.2407 56.5369 57.1594 51.978 57.2162 47.3252 50.2435 57.1923 51.6475 58.2179 51.2196 49.9807 51.6024 51.9157 66.8059 52.7593 53.0241 62.6866 52.4879 54.6045 66.7546 71.9508 55.0286 65.4658 65.5185 57.822 69.1914 68.8364 57.1345 72.7574 77.2971 78.1948 77.9519 72.3615 71.6215 76.0211 77.0911 72.4259 63.7464 82.8753 77.4479 78.333 86.6938 87.4343 88.1024 88.9221 93.2776 93.3443 98.0604 96.5421 95.2877 95.7437 98.8021 105.0952 104.8543 103.7248 117.4407 131.1537 129.2669 129.2433 130.1439 141.2338 146.7432 146.2194 148.363 148.9969 155.6828 
PEPMASS=678.343
CHARGE=2+
70.0630 263.0
72.0796 1099.0
73.0268 171.0
84.0777 635.0
86.0943 2421.0
87.0438 257.0
87.0984 162.0
89.0566 804.0
104.0671 472.0
110.0681 902.0
120.0777 883.0
121.0628 268.0
122.0776 4463.0
123.0808 254.0
129.0981 2238.0
130.0849 352.0
133.0823 707.0
136.0714 6145.0
137.0751 553.0
143.1140 2469.0
144.0614 232.0
144.1185 254.0
146.0571 158.0
147.1100 704.0
155.1119 144.0
157.1295 166.0
158.0902 199.0
159.0155 237.0
159.0854 414.0
160.0224 116.0
160.0923 150.0
165.0868 201.0
169.0937 349.0
169.1298 148.0
171.1091 567.0
173.1205 128.0
175.1136 1523.0
177.1046 196.0
178.0462 343.0
180.0292 228.0
183.1067 192.0
185.1225 135.0
191.1124 178.0
197.1594 164.0
201.1211 228.0
209.1017 306.0
210.0201 133.0
212.9734 177.0
214.9117 197.0
219.1058 150.0
228.1258 181.0
229.1149 203.0
230.9849 305.0
231.0908 120.0
232.9240 167.0
233.0871 131.0
239.1086 270.0
240.1269 1092.0
241.1322 162.0
242.1435 317.0
242.1808 241.0
244.0859 155.0
247.1990 465.0
248.9954 126.0
249.9783 390.0
251.0948 5652.0
252.0985 1031.0
253.1037 133.0
255.0989 173.0
258.1376 263.0
262.1300 298.0
263.1381 162.0
263.9754 113.0
271.1716 175.0
272.1523 157.0
273.0050 414.0
274.0132 826.0
274.1815 242.0
275.2015 547.0
276.2051 116.0
279.0905 1050.0
280.0918 188.0
281.0931 306.0
283.1376 691.0
284.1389 157.0
285.1472 160.0
286.1360 118.0
289.9781 188.0
291.0399 155.0
291.2240 597.0
292.0264 205.0
296.1921 188.0
297.0682 151.0
297.1519 128.0
299.1652 434.0
300.9048 252.0
306.9997 1624.0
308.0002 291.0
308.9980 231.0
310.1661 973.0
311.1315 406.0
311.2921 116.0
312.1427 202.0
318.9182 191.0
322.1796 144.0
327.1255 122.0
331.9628 134.0
334.1345 117.0
335.0116 597.0
337.0137 115.0
342.9328 190.0
343.1473 197.0
343.2260 248.0
344.1774 126.0
344.9443 206.0
345.9473 151.0
347.9433 158.0
353.0230 262.0
353.2085 142.0
357.1701 117.0
357.9663 365.0
360.9464 115.0
363.9488 220.0
364.9574 111.0
365.9446 335.0
370.2361 455.0
370.9866 152.0
371.2192 412.0
372.2283 102.0
375.2263 526.0
375.9768 310.0
382.1657 191.0
384.9123 119.0
386.9015 169.0
386.9867 361.0
387.9736 116.0
388.2803 396.0
393.2165 190.0
397.1302 110.0
398.2372 114.0
401.2739 160.0
401.9195 153.0
402.2360 245.0
404.9992 170.0
408.1835 171.0
410.9239 162.0
418.8940 149.0
419.9226 245.0
421.9259 257.0
423.2473 223.0
425.9483 337.0
426.1798 161.0
428.9314 183.0
433.0298 218.0
442.1518 754.0
443.1571 203.0
443.9597 645.0
444.1932 184.0
446.9496 161.0
447.9385 127.0
448.2055 154.0
449.0068 507.0
449.2173 226.0
452.9110 167.0
458.9455 125.0
459.9302 242.0
460.9526 144.0
467.1242 249.0
471.9517 102.0
476.9475 235.0
477.2417 181.0
478.9500 144.0
479.9329 109.0
485.1407 253.0
494.2799 249.0
494.9103 108.0
495.2563 335.0
499.2495 123.0
500.9764 150.0
512.2831 883.0
513.2881 245.0
515.9117 401.0
517.3120 236.0
525.2676 637.0
526.2729 197.0
543.2756 163.0
555.2357 150.0
564.2413 125.0
566.2882 205.0
567.2928 130.0
570.2832 122.0
572.9304 192.0
581.3192 147.0
583.3158 1494.0
584.3186 376.0
618.3674 477.0
619.2498 334.0
619.3714 140.0
620.2531 144.0
677.3235 186.0
679.4085 108.0
680.3776 588.0
681.3838 329.0
696.3944 1053.0
697.4039 423.0
717.4317 222.0
767.4309 1853.0
768.4372 851.0
769.4410 273.0
831.4735 331.0
914.5020 1252.0
915.4994 666.0
960.5052 650.0
961.5116 275.0
1059.5573 176.0
1077.5693 409.0
1078.5561 290.0
1116.5804 275.0
1117.5952 196.0
1187.6376 263.0
END IONS
BEGIN IONS
TITLE=Spectrum 1GLYPHOS_HLQIIYEINQR_1426_01.raw.csv DRIFT_TIME=16.6227 30.166 34.4592 16.5446 24.3203 153.9036 49.5184 50.8133 154.8563 125.4416 108.2318 20.0217 141.6637 72.1918 16.888 34.6111 24.1149 125.4658 109.2353 30.263 23.5573 16.877 142.197 29.5035 49.6061 73.1751 179.0998 49.3118 155.4863 84.5052 16.2296 31.778297 21.0186 44.3258 176.263 50.5535 51.9602 33.4664 31.113098 53.5944 16.4501 18.3481 37.9986 71.8412 22.5017 85.1905 29.2971 16.6491 20.6501 27.675 52.3734 67.5553 149.0048 17.5248 32.667 124.6247 16.6227 26.7661 16.4129 124.3371 18.8375 62.6365 149.6646 139.4854 24.4585 24.5333 37.9252 68.8977 72.8559 29.8957 17.0678 80.8458 31.6763 45.1747 155.1488 108.9435 73.5804 56.9402 16.4891 50.22 35.7333 30.4933 21.5021 83.6697 49.1266 43.2146 93.95 46.9556 40.0354 32.212 16.4662 22.8215 88.1094 46.9551 26.2883 67.2025 122.1222 148.5124 43.0148 26.7939 27.635 56.6154 54.9728 39.8585 68.7142 29.0279 94.4302 37.0196 45.1486 104.442 24.518 31.646599 31.219498 80.0467 24.248 29.2567 61.1451 54.5594 21.1614 48.5198 23.8313 91.5733 20.9946 48.4237 50.9111 31.9342 37.9065 28.2987 70.2672 52.1994 37.0446 53.4254 53.7823 
PEPMASS=713.897
CHARGE=2+
61.0417 325.0
223.1578 6466.0
251.1538 6132.0
110.0729 5983.0
194.9991 3471.0
1176.6543 2835.0
361.2046 2490.0
379.2149 2325.0
1177.6597 2111.0
935.5137 1834.0
822.4217 1703.0
175.1217 1440.0
1048.5975 1426.0
492.3043 1301.0
86.0983 1288.0
252.1585 1221.0
196.9968 1212.0
936.5093 937.0
823.4272 920.0
224.1623 919.0
205.0301 902.0
122.0840 893.0
1049.5959 883.0
255.0319 858.0
474.8584 788.0
530.3118 756.0
1289.7442 739.0
362.2039 738.0
1178.6583 734.0
659.3598 697.0
110.0302 652.0
242.1546 652.0
159.0229 635.0
432.8354 608.0
1290.7462 567.0
380.2170 531.0
355.2405 517.0
307.0165 514.0
274.9546 469.0
417.2268 456.0
111.0757 443.0
136.0786 438.0
303.1809 410.0
493.3039 409.0
178.1384 407.0
605.3866 403.0
257.0283 399.0
72.0834 381.0
144.9943 379.0
286.9368 359.0
400.2008 357.0
464.3033 349.0
1159.6360 346.0
129.1051 340.0
273.0202 337.0
937.5134 330.0
61.0417 325.0
214.1622 321.0
70.0668 309.0
869.4704 303.0
143.1194 302.0
473.1545 297.0
1160.6478 289.0
1050.6071 274.0
201.1270 259.0
213.0107 249.0
324.9606 247.0
475.1626 246.0
564.2763 242.0
255.1121 241.0
133.0871 240.0
580.3274 236.0
264.9279 233.0
450.8513 229.0
1179.6650 228.0
824.4335 225.0
531.3147 223.0
600.8286 222.0
89.0602 220.0
476.8556 219.0
286.1530 216.0
256.0400 210.0
179.0221 207.0
660.3563 201.0
383.1691 195.0
434.8311 193.0
645.3426 191.0
498.7535 189.0
304.9025 188.0
244.1671 180.0
84.0841 179.0
134.9660 179.0
717.3720 175.0
344.1822 168.0
214.9192 163.0
474.2858 163.0
870.4814 163.0
1158.6624 161.0
414.8218 158.0
232.9358 155.0
199.1859 152.0
496.9359 152.0
402.2549 150.0
306.8977 147.0
465.3089 145.0
258.9778 144.0
688.3477 143.0
293.1164 141.0
476.8015 141.0
768.4574 140.0
185.1688 139.0
234.1323 139.0
258.0332 138.0
582.2735 136.0
196.0020 133.0
225.1260 132.0
415.1316 131.0
427.2105 130.0
189.0515 128.0
363.2078 127.0
206.0327 126.0
577.4004 126.0
181.0225 124.0
423.0926 124.0
381.2228 122.0
282.9379 119.0
334.9878 116.0
206.1328 115.0
519.2858 114.0
356.2435 112.0
326.9587 107.0
438.1417 107.0
418.2228 106.0
END IONS
BEGIN IONS
TITLE=Spectrum 1GLYPHOS_LLSYVDDEAFIR_1439_01.csv DRIFT_TIME=16.3538 16.5499 16.2332 16.4149 16.6617 16.0751 16.3407 16.2764 16.9118 28.2173 16.2177 16.9246 16.6691 16.2727 16.1803 16.3406 17.0117 17.4205 16.7309 16.8366 17.4276 17.4559 16.9165 22.2428 18.2855 18.3293 16.336 18.7434 20.729 17.8616 20.2595 18.2931 20.8367 20.0279 20.4085 18.1122 19.9456 22.3207 20.0781 20.0713 19.0118 19.3979 21.8294 20.9035 24.8025 21.2629 25.0455 24.2716 24.2904 28.0148 28.1043 24.4499 23.326 25.2598 23.4758 25.293 23.9849 23.9696 24.8075 26.9266 27.0162 26.2918 27.8785 28.1761 31.033401 28.2173 31.1069 27.0109 27.1784 25.4812 28.6661 28.9924 30.2791 32.1846 39.4736 33.3559 28.2256 29.9486 30.1179 29.4311 30.1931 30.633 29.2139 31.725502 32.7326 32.0488 34.9618 33.1667 33.4987 30.9069 36.7572 34.6428 38.1213 27.4348 40.3082 34.982 45.4712 44.977 45.1487 40.0739 28.256 33.3591 33.0091 38.3745 42.292 44.4647 38.7586 44.7595 38.7023 37.9274 38.4642 41.2677 45.58 37.6248 42.1612 37.5077 31.936897 39.6776 45.0215 32.9174 45.169 47.6355 46.3661 49.909 52.4572 52.0706 46.002 52.5656 48.7572 50.122 41.078 51.746 58.8282 57.0609 59.8569 59.2832 50.863 42.117 54.3778 67.8852 61.4773 61.6985 53.6091 53.4661 43.3898 54.1055 54.6026 64.8095 63.312897 64.4423 63.5559 61.8179 57.8849 66.3248 65.6238 48.4806 63.301804 62.7571 55.9181 56.1726 71.1186 71.8426 49.9582 72.604 93.4341 68.1655 75.0387 75.0118 72.3885 71.3655 70.3738 83.1474 72.9299 82.274 75.0118 74.4865 84.3648 103.199 103.9472 87.8041 88.3292 85.1619 85.895 93.4321 90.3629 113.1112 92.2817 93.3801 91.2943 91.3103 91.3779 98.2577 99.6249 101.7361 92.9351 92.1088 93.8201 101.2737 99.9142 96.3276 97.4073 98.8194 105.7493 110.447 113.0657 113.159 107.5051 110.8342 109.5379 109.2714 123.8579 128.3211 128.2335 130.9834 125.1227 124.9366 123.9049 124.633 125.3051 130.4747 133.2681 130.0529 136.3738 136.4953 134.7164 132.8155 156.7551 149.7185 149.1732 145.4352 160.5957 161.721 164.0148 161.3489 158.5032 155.8631 157.048 152.3461 152.3036 176.0326 
PEPMASS=720.8745
CHARGE=2+
55.0567 215.0
61.0417 277.0
69.0714 152.0
70.0670 1394.0
72.0827 2991.0
80.0143 169.0
84.0467 202.0
84.0828 308.0
86.0979 7330.0
86.0983 123.0
87.0470 295.0
87.1010 509.0
89.0606 634.0
104.0737 146.0
110.0297 872.0
110.0748 505.0
115.0899 147.0
120.0829 467.0
121.0688 157.0
122.0835 1413.0
129.1047 718.0
130.0889 228.0
133.0887 871.0
134.9665 133.0
136.0779 7719.0
137.0832 792.0
140.0452 199.0
143.1201 597.0
144.9961 618.0
147.1161 359.0
157.1362 165.0
158.0967 141.0
159.0221 537.0
159.0962 142.0
163.0062 159.0
165.0943 171.0
171.1175 387.0
173.1343 168.0
175.1238 2102.0
176.1259 236.0
177.1170 272.0
178.0557 150.0
179.0243 193.0
184.1102 154.0
185.1680 5050.0
186.1271 225.0
186.1725 821.0
195.0003 2716.0
196.9976 955.0
199.1844 3930.0
200.1876 599.0
201.1283 1028.0
202.1325 184.0
204.1383 1525.0
205.0281 934.0
205.1436 204.0
206.0423 128.0
212.1080 374.0
213.0102 217.0
213.1633 3770.0
214.1648 665.0
214.9208 253.0
223.1126 2325.0
224.1199 348.0
227.1799 1893.0
228.1405 120.0
228.1861 285.0
229.1264 222.0
230.1182 146.0
232.9352 168.0
233.1355 295.0
234.1269 141.0
235.1482 409.0
242.1525 259.0
247.2123 335.0
249.1657 492.0
249.9922 125.0
251.1076 615.0
252.1174 124.0
255.0327 701.0
255.1152 231.0
256.0419 296.0
257.0306 301.0
261.1314 201.0
263.1424 175.0
264.9291 212.0
271.1825 113.0
273.0176 801.0
274.0217 103.0
274.9551 601.0
277.1641 131.0
283.1462 164.0
284.2040 165.0
286.9351 453.0
288.2085 386.0
290.1511 110.0
291.2382 662.0
296.2049 1030.0
297.2096 221.0
304.9043 186.0
304.9501 167.0
307.0137 810.0
308.0107 141.0
310.1833 157.0
313.1962 142.0
314.2140 1348.0
315.1740 386.0
315.2188 246.0
316.1763 111.0
317.0857 168.0
324.9565 144.0
327.1352 589.0
331.2097 382.0
333.0481 108.0
333.1845 713.0
334.9909 124.0
340.1721 184.0
342.9447 140.0
346.1849 374.0
346.9710 188.0
350.1775 368.0
364.1958 214.0
367.9427 165.0
369.2230 166.0
371.2498 126.0
376.2323 411.0
377.1569 145.0
377.2326 114.0
401.9369 119.0
407.9852 129.0
409.0267 257.0
409.1886 133.0
412.2618 154.0
414.2410 187.0
418.2448 137.0
419.2554 128.0
424.1559 215.0
424.8524 136.0
427.2100 172.0
431.2716 204.0
435.2784 371.0
436.2812 125.0
441.1833 537.0
442.1812 139.0
442.8664 221.0
443.9626 425.0
445.9620 316.0
449.2867 154.0
459.2748 372.0
460.2751 102.0
463.2712 189.0
465.2135 131.0
468.1919 108.0
480.2573 973.0
481.2584 207.0
484.8830 127.0
490.1975 130.0
491.1894 242.0
494.9288 164.0
496.9445 141.0
506.3176 554.0
507.3282 207.0
508.8618 118.0
543.2279 164.0
551.3413 238.0
554.2105 135.0
560.2666 355.0
561.2570 150.0
564.2784 310.0
571.2270 350.0
572.2295 149.0
580.3301 204.0
581.2801 103.0
581.3412 172.0
588.2552 672.0
589.2512 293.0
597.3473 486.0
607.4128 248.0
608.4075 151.0
627.3280 418.0
628.3315 226.0
635.3629 953.0
636.3714 366.0
645.3558 365.0
646.3501 164.0
663.4781 146.0
691.3242 122.0
707.3247 176.0
709.3375 118.0
718.2978 281.0
719.3113 152.0
721.4008 177.0
722.3993 530.0
723.4177 416.0
724.3916 198.0
735.3332 287.0
736.3119 166.0
741.3684 496.0
742.3694 260.0
750.3942 963.0
751.3983 424.0
752.3385 137.0
847.3436 207.0
856.4039 594.0
857.4006 276.0
864.3615 375.0
864.3716 305.0
865.4175 2944.0
866.4239 1364.0
867.4281 413.0
953.4172 149.0
964.4857 2016.0
965.4960 1034.0
966.4926 348.0
966.5102 262.0
970.4481 1005.0
971.4490 610.0
972.4435 300.0
981.4160 161.0
1027.4274 144.0
1049.4841 139.0
1050.4784 271.0
1067.4941 2998.0
1068.5013 2027.0
1069.4962 784.0
1070.4928 219.0
1078.6619 305.0
1127.5618 718.0
1128.5759 434.0
1129.5841 165.0
1214.5880 2298.0
1215.5962 1541.0
1216.5929 532.0
1216.6005 535.0
1217.6091 181.0
1230.5641 651.0
1231.5556 404.0
1231.5832 399.0
1232.5778 198.0
1327.6873 153.0
END IONS
BEGIN IONS
