BEGIN IONS
TITLE=Spectrum 1AVVQDPALKPLALVYGEATSR.csv DRIFT_TIME=11.2327 11.0954 11.2467 11.2877 11.3053 11.2152 11.1838 11.2084 11.4142 11.3938 11.2818 11.3057 11.3742 11.3868 11.5282 11.4278 11.4115 11.3939 11.4783 11.526 11.5514 11.5259 11.8005 11.3961 11.4941 11.4749 11.7034 11.3977 11.4483 11.4203 11.9249 11.5248 11.4513 11.7193 11.8121 11.6564 12.5227 14.1219 17.1185 18.1917 18.5355 18.7349 19.783 19.599 22.0086 21.8057 24.3672 22.8668 23.5215 23.061 27.9159 23.9961 24.9667 27.7432 28.0495 25.3452 25.4582 26.1132 27.9044 27.8524 27.7657 27.2752 30.0183 28.5944 30.5956 30.0181 31.5904 36.677 31.654099 31.364899 33.9093 33.2061 36.3793 32.7224 32.7422 33.7856 33.6913 39.35 35.1352 35.3433 35.7897 39.5579 36.8741 38.6908 38.4086 40.9501 39.9485 42.0241 41.5286 41.3496 41.8689 49.6152 42.0647 49.1924 44.9139 44.5869 37.6797 45.2386 47.3066 47.689 45.9689 48.1845 47.5861 49.2 55.0482 50.2078 50.0648 53.8564 59.5954 58.9422 59.0429 60.6569 60.3877 73.5988 72.7011 77.0844 86.8976 87.4537 96.957 97.1824 116.8032 133.2865 133.1303 137.1663 130.0772 131.6484 138.8693 142.99 137.6125 158.8496 162.9964 155.9872 
PEPMASS=1099.615
CHARGE=2+
55.0526 297.0
56.0479 492.0
57.0322 253.0
70.0621 1812.0
72.0771 3474.0
73.0814 196.0
84.0399 658.0
84.0760 934.0
86.0913 324.0
101.0677 244.0
104.0655 689.0
117.0986 205.0
122.0753 1485.0
129.0962 1314.0
130.0955 183.0
136.0705 166.0
141.0957 842.0
143.1111 1001.0
154.1164 182.0
169.0886 1831.0
170.0923 193.0
171.1050 1060.0
171.9689 306.0
172.1056 186.0
175.1121 426.0
181.0537 228.0
183.1406 188.0
185.0708 278.0
185.0898 292.0
196.0536 206.0
197.1557 422.0
198.0775 160.0
199.0638 175.0
200.1320 205.0
201.9769 575.0
203.9912 173.0
211.1381 189.0
242.1749 668.0
254.1747 137.0
282.1700 1100.0
283.1776 155.0
327.1875 138.0
343.1462 2975.0
344.1495 525.0
353.2118 176.0
355.1874 134.0
369.1895 150.0
384.1710 138.0
394.1554 339.0
395.1482 468.0
395.2513 391.0
397.1924 531.0
398.2215 406.0
410.2584 2604.0
411.2638 620.0
412.1645 797.0
413.1713 139.0
414.1823 173.0
434.2196 1217.0
435.2191 324.0
438.2557 123.0
442.2119 300.0
452.2705 318.0
466.2058 119.0
467.2348 173.0
468.2277 250.0
494.2043 147.0
494.3101 360.0
495.2388 340.0
496.2261 201.0
497.2554 192.0
507.2417 159.0
507.3114 140.0
511.2310 536.0
512.2317 174.0
513.2476 1889.0
514.2509 558.0
523.3507 168.0
525.2477 761.0
526.2540 215.0
539.2638 246.0
551.3337 167.0
563.2640 182.0
567.2849 199.0
579.2434 114.0
581.3119 214.0
582.2942 166.0
596.2978 182.0
610.3013 390.0
611.2975 129.0
620.2762 968.0
620.3887 149.0
621.2728 356.0
622.4014 150.0
624.3137 443.0
625.3235 177.0
633.0779 109.0
635.3294 149.0
653.3347 200.0
663.3242 153.0
664.3019 147.0
681.3312 1036.0
682.3338 517.0
683.3308 107.0
691.4171 193.0
695.3527 292.0
696.3516 130.0
766.3175 106.0
783.3346 1169.0
784.3338 472.0
785.3343 143.0
794.4027 660.0
795.4142 335.0
882.3949 712.0
883.3939 406.0
903.5633 131.0
995.4833 514.0
996.4803 324.0
1066.5154 534.0
1067.5164 296.0
1179.5932 271.0
1276.6286 3319.0
1277.6329 2238.0
1278.6401 809.0
1278.6501 856.0
1279.6454 292.0
1404.7235 691.0
1405.7425 479.0
1406.7389 252.0
1685.8885 606.0
1686.8793 651.0
1686.8983 556.0
END IONS
BEGIN IONS
TITLE=Spectrum 1DFPIANGER_01.csv DRIFT_TIME=16.4366 16.0668 16.1296 15.9522 16.1348 16.3723 16.0212 16.3292 16.3657 16.299 16.1896 16.1564 16.1464 16.1072 16.4333 16.1523 16.3531 16.1059 16.0457 16.4886 16.1854 16.2811 16.2977 16.2125 17.9579 16.0404 16.0131 16.5339 16.2991 16.7011 16.0351 16.3732 16.2228 16.5265 16.1835 16.614 16.2637 16.5027 16.2424 16.5538 16.9455 16.5128 16.4427 16.504 16.5172 16.4946 16.6506 16.2569 16.4465 16.3097 16.2334 16.4799 16.4185 16.6821 16.5521 16.7076 16.8373 16.5955 16.9013 16.6262 16.8732 16.5744 16.4824 16.6092 16.7425 16.2777 16.6438 16.6755 17.2056 16.6546 16.8199 18.5099 16.7381 19.3351 16.7173 16.7993 17.8106 16.8006 17.6295 17.0892 17.4887 16.8521 16.8362 16.8052 17.021 17.0958 17.1398 16.8267 16.7905 18.158 18.2876 17.9338 17.8886 18.6295 17.5159 17.1394 17.8614 17.0721 17.1975 18.6513 17.5717 18.1964 17.5603 17.5171 17.2569 19.0292 17.2014 18.0792 18.1215 18.3299 18.4372 18.6563 17.9348 18.4628 18.5383 18.6872 17.5982 18.5492 17.2752 17.7869 17.382 17.4934 17.2737 17.5105 17.9576 18.5166 19.4338 18.8512 18.7492 18.8277 18.7924 18.7414 18.8859 18.4407 18.2679 18.2221 18.2693 19.0391 18.0341 18.6576 19.1025 18.3347 18.8041 19.0551 18.5764 18.6705 20.7183 19.1509 20.8341 19.4879 19.69 19.6526 17.9569 20.7519 18.9054 19.0028 18.8734 18.9546 18.8686 18.8662 19.9725 20.0648 19.2964 24.4505 25.3642 20.5004 20.8615 18.6702 18.7492 19.148 19.6988 19.6983 20.0398 19.107 19.6615 19.8557 19.297 19.4946 19.279 19.3982 19.5006 22.3458 22.1117 19.8251 19.7123 24.1029 20.7182 19.0377 20.5497 26.9279 21.364 22.4665 20.4716 19.4691 20.0814 19.3812 19.4312 19.6168 19.7082 19.8789 24.8777 21.8069 21.3988 21.4441 21.3296 24.3832 30.0549 22.7771 23.2063 29.8744 22.2643 24.2363 30.4601 22.3411 23.5182 28.1852 23.7466 27.4421 22.5334 22.7172 24.0853 24.1619 27.5235 23.9838 24.2862 31.378601 23.1151 32.1553 27.4747 22.5149 26.5264 24.8378 25.366 28.5065 29.1278 29.0623 30.9679 30.828 32.0891 32.5273 33.6049 26.989 26.4873 31.624802 26.439 26.5433 26.0902 26.4414 35.3372 34.6036 25.6404 33.5019 32.9412 27.1773 27.1363 27.1788 27.1938 26.8573 32.2196 32.2868 36.5945 30.3461 30.138 29.5991 39.4733 39.2974 42.3266 42.0537 40.9887 37.5353 34.772 38.0728 40.8703 39.3237 39.7386 34.1466 38.606 41.299 40.9521 40.9311 48.9659 47.0242 47.1484 44.5156 51.64 69.2718 78.3511 45.9292 50.1078 52.8794 46.9565 46.7062 52.0096 62.1432 46.6802 62.7853 63.392303 46.2169 46.2961 46.3898 46.6357 48.2511 39.4897 51.3482 51.6041 51.4097 51.7659 49.9901 48.5227 43.6891 59.4841 52.6559 59.7124 59.8349 59.8188 53.8634 54.8836 62.319 61.5918 61.8489 62.9135 63.858 65.1735 65.206 64.2994 70.6629 69.8454 70.053 72.2694 69.328 68.4604 75.3138 78.4957 80.6284 83.9872 84.7375 86.6097 82.2471 78.174 77.831 77.6431 76.9445 76.7598 92.0995 102.3397 102.1087 104.0015 
PEPMASS=509.754
CHARGE=2+
102.9662 194.0
104.0699 1945.0
110.0690 3779.0
111.0731 700.0
112.0865 174.0
114.9513 479.0
116.0709 314.0
116.9479 489.0
116.9863 765.0
118.9454 595.0
120.0792 4029.0
121.0830 469.0
122.0798 4600.0
123.0840 279.0
124.9903 171.0
129.1014 1009.0
129.9629 1006.0
130.0638 1695.0
131.0634 243.0
132.9559 161.0
134.9597 180.0
136.0745 1062.0
136.9521 187.0
137.0804 225.0
141.0220 141.0
141.4591 429.0
144.0797 243.0
144.9625 169.0
147.1114 340.0
147.9713 223.0
150.4671 160.0
152.0022 686.0
154.1218 336.0
157.0040 383.0
158.0906 579.0
158.9775 469.0
159.0898 660.0
160.0261 941.0
160.0949 159.0
163.9996 378.0
166.8676 221.0
167.9949 259.0
169.0963 254.0
169.1296 185.0
170.0092 190.0
171.1488 242.0
171.9728 1707.0
172.0730 576.0
175.0838 1510.0
175.1170 1704.0
176.0833 255.0
178.0387 198.0
179.0946 228.0
182.0120 160.0
183.1473 2927.0
183.9723 301.0
184.0262 177.0
184.1515 456.0
185.9893 1137.0
187.9660 223.0
189.9816 399.0
190.0845 1532.0
191.0857 242.0
192.9647 420.0
194.9608 2788.0
195.0746 172.0
195.9635 644.0
196.9572 2225.0
197.9887 1076.0
200.0702 179.0
201.9821 1722.0
202.8893 367.0
202.9908 426.0
203.8877 146.0
203.9985 1294.0
204.1311 1027.0
204.8852 310.0
205.1359 327.0
210.0798 297.0
210.9792 171.0
211.1405 640.0
212.9701 891.0
213.9769 218.0
214.9685 599.0
215.9977 1045.0
217.0941 703.0
218.0801 433.0
218.9562 286.0
219.9772 421.0
220.8986 331.0
221.8983 462.0
222.8963 271.0
223.8870 377.0
226.0743 560.0
227.8782 136.0
227.9287 226.0
229.1171 161.0
231.0098 163.0
231.9754 2028.0
233.9498 312.0
235.1039 7524.0
235.9521 157.0
236.1078 1299.0
237.1104 186.0
239.1144 267.0
239.9319 229.0
241.8947 348.0
243.9262 180.0
243.9785 288.0
244.0869 212.0
245.0883 243.0
245.8951 5200.0
245.9902 191.0
246.8987 403.0
247.8928 2036.0
248.8955 143.0
249.0945 352.0
249.8888 284.0
249.9851 4204.0
250.0946 165.0
250.9919 518.0
251.9780 1008.0
252.9857 188.0
253.9793 426.0
255.0115 156.0
256.0834 343.0
257.1485 171.0
257.9363 600.0
258.0055 264.0
258.1450 261.0
258.8055 137.0
259.1435 187.0
259.9125 1015.0
261.9132 290.0
261.9888 450.0
262.9812 701.0
263.0934 188.0
263.9056 2788.0
264.0013 3867.0
264.9077 169.0
265.9042 1113.0
265.9308 1127.0
267.1038 484.0
267.9009 157.0
268.1073 267.0
269.1196 160.0
269.9260 271.0
270.1050 132.0
271.9225 217.0
271.9596 226.0
272.1259 170.0
273.1226 207.0
273.9863 329.0
275.1179 155.0
275.1670 157.0
275.9052 5815.0
276.9130 618.0
277.9057 2562.0
278.9060 187.0
279.9047 341.0
279.9490 505.0
281.0978 357.0
281.9186 484.0
282.1338 218.0
282.1810 308.0
285.1255 144.0
285.9163 387.0
286.7936 2993.0
288.7918 396.0
288.9978 1413.0
289.9214 3081.0
289.9873 512.0
290.9277 440.0
290.9929 467.0
291.9178 1234.0
291.9955 922.0
292.9876 159.0
293.9152 2265.0
294.8297 209.0
294.9224 289.0
295.9143 970.0
296.1488 333.0
297.1519 169.0
298.9655 459.0
299.9622 148.0
300.1523 133.0
300.9260 8290.0
301.9246 919.0
302.9238 1006.0
303.1478 152.0
303.9266 169.0
304.1581 132.0
304.9164 304.0
307.0036 17331.0
307.9315 729.0
308.0099 2369.0
309.0036 2617.0
309.9320 266.0
310.0069 209.0
311.9280 140.0
312.1505 437.0
314.9508 256.0
318.9389 2812.0
319.9404 217.0
320.9324 283.0
323.1197 116.0
323.2235 2493.0
323.9102 955.0
324.1435 290.0
324.2267 779.0
325.0792 152.0
325.1462 189.0
325.2225 140.0
325.8994 222.0
326.1427 151.0
326.1992 323.0
327.1356 173.0
328.1793 158.0
333.9425 138.0
334.9411 449.0
336.9034 2565.0
337.9085 268.0
338.1778 429.0
338.9011 1365.0
339.9066 150.0
341.2330 818.0
341.9209 850.0
342.2355 221.0
343.1567 212.0
343.9182 270.0
344.1533 280.0
353.0441 194.0
354.9154 252.0
360.1537 132.0
361.1804 1460.0
362.1857 235.0
367.1916 345.0
368.1916 238.0
376.1681 321.0
377.1735 272.0
379.1860 205.0
379.9787 489.0
380.9275 10756.0
381.1664 153.0
381.9319 1487.0
382.9263 5733.0
383.9303 739.0
384.9255 1216.0
388.2516 178.0
389.2628 177.0
390.9546 186.0
396.2179 167.0
397.2139 147.0
398.9397 3912.0
399.9431 453.0
400.9359 1984.0
401.9383 176.0
402.9347 306.0
404.1653 589.0
405.1683 509.0
411.2468 104.0
416.9047 543.0
418.9011 518.0
420.8997 139.0
421.2178 688.0
422.2152 177.0
424.2121 450.0
425.2204 405.0
426.2167 144.0
441.1695 191.0
442.9223 462.0
450.1592 249.0
452.2209 119.0
458.1946 542.0
459.1993 169.0
463.0060 184.0
475.0526 646.0
475.2222 2131.0
476.2189 665.0
478.1592 117.0
488.2758 129.0
490.2620 286.0
496.2505 318.0
508.1544 158.0
508.3213 291.0
508.4678 145.0
508.5697 181.0
509.2399 120.0
509.2521 109.0
509.3225 139.0
510.2472 307.0
511.2276 262.0
511.3384 444.0
511.3946 551.0
512.2326 136.0
512.3928 190.0
513.4045 342.0
518.1567 210.0
528.2459 118.0
529.2336 416.0
530.2275 144.0
535.1786 300.0
536.9143 113.0
546.2542 10830.0
547.2561 4208.0
548.2584 900.0
549.2593 196.0
553.1955 332.0
554.1867 109.0
555.9842 324.0
556.3417 315.0
557.2245 209.0
557.3432 588.0
558.3478 637.0
559.3425 157.0
590.2543 139.0
591.2421 279.0
610.2901 312.0
611.2910 576.0
612.2999 335.0
627.3115 111.0
642.3156 166.0
647.2552 229.0
648.2656 403.0
649.2654 241.0
659.3400 4763.0
660.3406 1883.0
661.3315 527.0
669.3237 149.0
671.3886 138.0
672.3779 194.0
739.3693 445.0
740.3725 214.0
743.4197 168.0
747.3535 189.0
748.3518 527.0
749.3105 142.0
749.3450 163.0
755.2621 112.0
756.3864 6849.0
757.3895 2828.0
758.3900 849.0
759.3886 158.0
858.4416 200.0
914.4548 168.0
915.4708 544.0
916.4689 311.0
END IONS
BEGIN IONS
TITLE=Spectrum 1DGPLTGTYR.csv DRIFT_TIME=17.4815 16.4741 16.8377 16.6403 19.1236 19.5589 17.081 16.8046 19.4156 18.9148 18.4435 17.1543 20.7802 22.0734 18.1014 20.4259 21.5154 22.0096 22.3662 17.9873 20.1655 21.4004 19.828 25.935 22.4085 24.0784 25.3506 26.1386 19.4917 22.1953 22.4179 21.7596 21.8085 25.1924 30.1446 26.0311 23.62 21.3098 34.1486 23.6391 22.3218 23.725 23.4907 34.146 30.1309 23.6524 23.4516 23.7197 24.0201 23.8247 24.2655 29.007 27.2344 38.1374 33.2087 38.6981 28.8362 27.6012 31.358002 39.0804 29.1275 37.9343 45.8334 36.222 36.6928 35.5712 45.1735 45.8578 36.5379 48.4116 37.0805 51.9159 49.1334 55.9181 61.8061 62.5847 66.0442 65.9995 77.4965 81.8288 81.3709 71.8209 70.052 67.9858 66.8373 89.1097 89.3022 89.1121 102.6378 103.9326 112.3397 117.1854 121.0644 121.7383 119.8557 151.2669 
PEPMASS=490.2485
CHARGE=2+
114.9965 168.0
122.0807 161.0
129.1018 170.0
130.0851 458.0
132.9617 634.0
134.9587 549.0
136.0764 165.0
147.1120 264.0
150.9726 207.0
152.9725 236.0
157.1340 142.0
159.0754 393.0
160.0282 365.0
166.8670 1585.0
175.1170 156.0
178.0401 216.0
183.1455 126.0
184.8781 262.0
185.1689 225.0
187.0710 258.0
195.8922 2512.0
203.9994 180.0
213.9052 1338.0
223.8864 2319.0
224.1025 131.0
224.8939 132.0
227.8823 123.0
229.1176 472.0
231.9186 261.0
241.8888 5309.0
242.9039 618.0
243.8987 199.0
245.8947 399.0
249.9868 461.0
251.9626 269.0
251.9826 151.0
259.8619 2761.0
259.9087 1606.0
260.1994 448.0
260.8700 299.0
260.9167 197.0
261.8575 2960.0
263.8616 293.0
269.9279 133.0
269.9780 148.0
277.8704 3233.0
278.8797 361.0
279.8688 3241.0
280.8791 145.0
281.8721 326.0
283.9112 149.0
286.7962 251.0
287.9409 652.0
298.1419 159.0
300.0855 147.0
300.1559 282.0
304.8089 416.0
305.9532 789.0
307.0080 571.0
316.1521 182.0
322.8220 309.0
323.9125 148.0
328.1881 167.0
333.9408 184.0
341.9273 211.0
344.9561 221.0
347.2274 1103.0
348.2272 171.0
351.9490 113.0
369.1717 167.0
379.8798 210.0
387.1915 118.0
409.0029 140.0
415.1844 583.0
462.2576 826.0
463.2603 221.0
484.2082 432.0
485.2049 133.0
487.3705 125.0
489.3085 324.0
490.3064 111.0
496.2561 563.0
497.2583 169.0
502.2212 588.0
503.2301 142.0
575.3421 417.0
597.2976 1094.0
598.3104 350.0
646.3780 508.0
647.3843 235.0
710.3846 365.0
711.3986 164.0
761.3965 1303.0
762.3987 535.0
763.4193 188.0
874.4816 494.0
END IONS
BEGIN IONS
TITLE=Spectrum 1EPISVSSQQMLK.csv DRIFT_TIME=15.956001 16.0413 16.063 15.976 16.1912 16.1036 16.2214 16.5056 16.2146 16.1891 16.1416 16.1904 16.2072 16.5419 16.2187 16.724 16.484 16.1887 16.7123 16.3742 16.5896 16.514 16.5196 16.4102 16.4382 17.2503 17.1039 16.5982 16.6831 16.7214 16.6928 16.7248 16.5497 16.2964 17.0038 16.7175 16.4215 17.056 18.6427 17.3752 17.0061 18.5871 18.7516 17.7808 17.111 17.9683 18.504 17.3742 18.9584 18.8646 18.9648 16.8903 21.8662 22.1669 17.0296 18.2031 16.9322 17.9541 19.6119 20.5139 20.5819 19.0502 21.2986 17.1434 24.731 19.8001 19.3502 18.7052 18.8721 18.564 19.0161 20.4654 20.1904 25.4793 25.1843 23.219 21.6638 25.7751 18.6785 23.3995 24.3028 19.4262 23.8821 19.3711 19.2967 34.0937 19.2125 19.4744 19.4256 19.1379 19.4984 24.7308 23.3053 26.2528 24.4205 22.7586 22.238 20.2124 22.1505 20.8872 27.934 30.0332 22.8738 23.0048 26.6706 21.6601 21.3561 21.2861 27.2768 22.3356 29.2269 22.229 22.2635 29.6344 22.685 35.1185 32.5356 26.3736 26.4961 31.446602 31.645699 26.3343 26.3982 26.4729 26.2236 25.7013 31.641502 32.3085 37.7795 32.4242 36.9801 31.3275 36.9214 26.9049 27.0403 26.5835 26.4446 26.5549 31.8252 33.0362 33.0677 33.2436 30.2095 25.7036 29.7375 29.6432 38.654 29.5553 31.011002 29.928 36.7608 35.741 36.6397 36.5077 34.4327 29.5596 36.4667 42.1239 31.556198 31.993698 44.1086 43.8134 49.0811 49.3779 35.9613 43.12 45.721 45.9515 33.4912 33.1941 32.9966 43.9641 43.1801 44.2172 44.2616 43.8191 54.009 54.2062 47.5512 38.8074 38.8871 38.3005 54.1617 50.137 47.9671 54.3316 32.0264 32.525 32.1668 32.5592 32.1994 37.9074 54.1465 54.5869 38.0706 50.4935 37.4174 49.6757 47.9451 34.2415 48.8356 40.8715 52.3561 34.3259 44.3517 44.6301 43.891 44.0901 52.2542 52.8141 59.4214 55.0022 59.7219 47.9248 44.6823 46.0134 56.0924 45.1087 56.7295 58.1084 47.9116 59.717 57.0971 65.8221 48.2453 67.3043 67.1892 67.5261 50.1402 67.5006 65.4018 75.4635 72.9985 70.1469 78.4012 90.8405 78.9948 76.9053 93.9259 70.9149 70.0305 52.6514 49.7197 75.1323 81.0873 81.0887 80.6447 77.7516 54.0804 83.7462 85.034 91.5172 87.6901 94.1323 93.3684 94.6413 93.9324 101.1297 114.0444 111.8778 112.6281 100.6577 116.2686 116.6358 116.0473 115.6199 136.4382 137.5005 138.5704 
PEPMASS=673.856
CHARGE=2+
101.0694 293.0
102.0530 730.0
104.0679 401.0
110.0688 441.0
114.0876 285.0
122.0786 1036.0
129.0989 401.0
129.9631 163.0
130.0836 1030.0
136.0737 190.0
147.1087 587.0
154.1221 336.0
159.1091 890.0
160.0262 565.0
171.1444 285.0
171.9726 489.0
173.1237 495.0
175.1150 177.0
178.0327 160.0
181.0929 2076.0
182.0977 205.0
183.1082 901.0
183.1459 717.0
184.1097 207.0
187.0985 214.0
195.9987 189.0
197.9929 188.0
199.1028 866.0
201.1207 259.0
201.9807 914.0
203.9929 339.0
209.0868 2910.0
210.0899 478.0
214.8834 386.0
215.9968 525.0
216.0937 199.0
216.8799 353.0
219.9892 195.0
223.1532 137.0
223.8870 314.0
227.0973 394.0
233.9473 1987.0
235.9449 573.0
240.0959 210.0
241.8955 521.0
245.8938 192.0
248.1573 311.0
249.9840 1579.0
251.9564 2188.0
253.9536 688.0
257.1191 160.0
259.8651 171.0
260.1898 1099.0
261.1989 161.0
261.8577 1015.0
262.9786 501.0
263.8527 277.0
264.9716 136.0
266.8935 150.0
269.9230 914.0
271.9194 529.0
274.1324 281.0
276.1660 143.0
279.8672 550.0
280.1593 203.0
284.8949 125.0
285.1139 150.0
286.7903 1040.0
287.9352 1469.0
288.7867 357.0
288.9925 597.0
289.9277 373.0
290.0169 253.0
294.1775 573.0
295.1746 141.0
298.1707 240.0
303.1213 113.0
304.1457 159.0
304.8009 766.0
305.1003 126.0
305.9012 147.0
306.9987 16178.0
307.8950 151.0
308.0054 3165.0
308.9995 3880.0
309.2695 123.0
310.0022 825.0
310.9980 1946.0
312.0010 271.0
312.9943 210.0
314.9937 133.0
319.0415 127.0
320.1471 146.0
322.1707 601.0
323.1156 122.0
323.9050 1527.0
324.9097 126.0
325.8839 2035.0
327.8930 162.0
338.9895 191.0
340.1808 341.0
341.2407 167.0
341.9170 1263.0
342.9180 174.0
344.1575 226.0
344.9514 1304.0
346.9508 168.0
348.9389 148.0
355.0169 386.0
361.8565 3994.0
362.1951 251.0
362.8730 277.0
363.8561 1581.0
364.1878 108.0
364.8596 117.0
369.2723 212.0
373.1817 203.0
379.9764 148.0
380.9259 1210.0
381.2064 854.0
382.2096 190.0
382.9253 545.0
384.9202 257.0
385.9150 110.0
386.9138 169.0
390.9598 127.0
390.9983 179.0
391.1888 4027.0
391.2338 869.0
392.1938 1040.0
392.2349 219.0
393.1929 117.0
393.2302 119.0
398.9378 434.0
400.9405 192.0
404.9768 1283.0
405.9747 316.0
406.9695 288.0
409.0077 103.0
409.1986 2361.0
410.2029 578.0
411.2068 111.0
416.9009 458.0
417.8329 156.0
418.8993 382.0
420.8952 122.0
423.2308 126.0
424.8904 120.0
425.0026 137.0
426.9298 176.0
427.2130 518.0
428.2165 143.0
431.1776 531.0
432.1878 120.0
444.9815 160.0
446.9528 699.0
450.1493 397.0
451.2190 308.0
454.8530 344.0
456.8495 182.0
462.2641 1067.0
463.2735 347.0
464.3315 609.0
465.3365 248.0
466.0221 175.0
475.1902 138.0
480.2673 473.0
481.2788 155.0
482.9292 686.0
483.9369 111.0
484.9158 196.0
486.2228 307.0
489.2196 165.0
490.2546 1675.0
491.2572 502.0
492.2613 137.0
492.3630 3440.0
493.3651 913.0
498.2786 134.0
498.9585 374.0
499.9533 157.0
500.9584 200.0
501.2702 154.0
502.2624 362.0
508.2664 310.0
508.2699 284.0
508.8376 1716.0
509.8495 180.0
510.8335 577.0
514.8303 229.0
516.8287 244.0
518.9066 304.0
519.2889 907.0
520.2901 341.0
520.9026 171.0
530.2439 128.0
536.9089 213.0
545.1969 179.0
546.0830 193.0
546.7825 634.0
547.0589 215.0
548.0089 275.0
548.2701 248.0
548.7793 198.0
555.9774 2583.0
556.9792 568.0
557.9787 622.0
559.9822 124.0
562.2200 670.0
563.2043 166.0
564.3112 190.0
577.2935 228.0
588.2681 110.0
591.9570 332.0
593.9278 1001.0
594.9425 146.0
595.2946 562.0
595.9357 199.0
596.2994 237.0
599.2699 153.0
613.0000 254.0
613.3057 115.0
