BEGIN IONS
TITLE=Spectrum 1GLYPHOS_DFYELEPHK_1176_01.csv DRIFT_TIME=16.5173 16.4813 16.3994 16.1715 16.383 16.9007 16.0681 16.7062 19.2262 16.4919 16.1997 16.5152 17.3818 16.4906 16.8822 16.4499 17.3696 16.7661 17.2631 16.8826 22.1403 18.2772 18.1899 16.1511 20.4043 17.436 18.1876 17.5706 21.7975 18.0749 20.9337 19.8324 18.5236 19.3645 20.6753 20.1721 19.1207 19.3029 21.1165 23.0964 22.2786 21.1575 22.0649 24.1984 26.3842 24.2034 23.3266 24.2779 25.1609 24.8828 25.1911 24.3574 25.7327 26.2609 26.1007 29.1982 26.0181 28.4822 28.6825 28.9235 39.1755 39.72 28.3764 26.1972 32.2181 31.604301 29.1707 29.8494 30.84 30.8054 30.8118 32.1494 28.2522 28.4319 30.6618 30.8557 31.8624 33.6811 33.4931 33.6681 32.6931 41.8405 34.5862 31.3153 35.1259 32.0491 37.0332 35.3134 35.6341 27.3428 33.3508 21.8946 45.3826 45.5245 37.5119 39.5084 29.8627 32.8763 32.6753 22.2247 33.2515 41.3525 38.2192 38.0579 34.5692 37.7854 34.3692 38.853 22.0981 39.4769 55.4577 26.1893 43.818 49.2164 38.5242 36.7617 23.7898 33.9085 35.6987 39.3148 44.2061 26.2506 53.6274 39.8137 42.2897 28.6999 26.4684 39.0021 50.4826 27.2524 29.0538 45.0495 25.5816 35.9896 44.3466 28.3739 44.1514 43.0924 25.6214 43.263 53.9543 48.7558 30.4103 28.7066 28.6727 43.6663 50.6672 30.3761 50.7154 30.2202 47.2805 51.3859 45.957 44.708 26.5826 42.8383 29.3362 29.8459 29.0946 29.1361 28.9201 58.9586 32.63 32.4951 49.4132 55.2193 48.9678 47.6665 72.1248 57.289 66.9646 62.0645 48.0847 61.9594 42.6975 60.3483 62.0168 27.597 33.4538 48.1851 31.391197 21.3987 47.4702 29.385 33.7839 33.8134 34.0295 53.831 47.0433 32.5026 32.9435 47.7427 33.8697 75.6739 35.003 34.6562 34.2554 33.6832 36.3474 36.1184 35.6709 35.3204 35.1687 35.0238 37.5654 35.1789 35.1382 35.723 27.7611 33.6326 33.7311 36.0394 31.226501 37.1416 36.9453 36.8326 56.7186 36.54 37.3333 36.6004 36.0394 37.2642 35.2551 38.4599 36.3232 36.4934 36.5685 36.593 38.8726 38.2779 38.6199 38.2485 36.1235 26.6156 26.2211 38.2932 38.1439 38.1306 37.8068 36.4054 78.2328 36.7168 36.6996 36.6234 36.5745 48.3819 29.316 26.8131 25.9716 25.9804 36.7049 36.4591 34.7247 34.4305 36.5122 37.3137 39.5096 64.658 38.9764 64.0108 38.7546 41.8222 37.026 39.4885 37.7388 37.1637 40.3035 39.6864 40.5178 40.4002 40.6315 40.3929 39.7688 39.4055 39.5398 39.3215 39.3943 32.5369 31.767601 40.3483 66.1626 40.2056 39.929 65.3517 40.311 41.7248 41.375 41.8158 43.5233 43.5084 40.9294 30.1415 41.4011 29.2666 41.2871 41.3516 41.7636 42.8514 42.8069 42.7642 42.7552 30.5081 31.1708 42.6866 44.8635 42.3704 42.6304 41.7883 48.5607 49.3352 49.3543 31.946098 32.4414 32.9011 31.990402 40.9915 45.9945 45.2711 46.3124 34.0546 33.8061 70.9007 39.8601 39.8157 40.7018 41.7913 42.332 42.3236 38.3152 36.6845 37.1606 37.2157 37.0585 41.035 43.5304 44.0738 44.0697 34.3745 34.169 33.9658 35.8847 38.3558 40.9997 37.8733 83.3809 46.682 35.2073 46.1698 35.9699 45.9662 35.8114 45.2276 37.3112 37.994 37.4605 35.8781 36.4969 36.3225 36.44 44.2715 44.3399 43.9379 46.9525 47.1384 47.0732 47.3486 46.6716 48.1931 36.9023 37.8643 37.8256 37.7221 45.883 44.7904 76.8944 47.4509 49.8749 80.5956 49.8999 49.9243 37.4571 81.2534 37.6042 49.5768 37.6612 50.3518 37.3877 37.1761 81.788 84.3265 58.8951 59.2556 60.7383 60.2724 65.1923 60.8595 102.2268 103.0768 97.7894 69.5192 70.5127 106.7527 124.1169 125.4693 129.5659 135.2102 
PEPMASS=589.283
CHARGE=2+
61.0411 241.0
70.0655 463.0
72.0815 205.0
80.0125 373.0
84.0796 999.0
86.0966 630.0
87.0453 327.0
89.0591 1321.0
98.9866 176.0
104.0705 294.0
110.0267 1671.0
110.0704 475.0
120.0802 1330.0
121.0639 715.0
122.0811 2757.0
123.0840 183.0
129.1021 441.0
130.0640 229.0
130.0863 215.0
133.0856 1582.0
134.9638 303.0
136.0749 4730.0
137.0792 475.0
140.0444 146.0
144.9927 803.0
147.0772 277.0
147.1133 383.0
149.0943 149.0
152.9731 211.0
156.0779 141.0
159.0189 1333.0
163.0028 195.0
165.0895 606.0
166.0559 277.0
175.0837 365.0
175.1195 885.0
177.1134 394.0
178.0531 332.0
179.0187 208.0
187.1427 124.0
190.0845 194.0
191.1021 144.0
193.1210 119.0
194.9944 2660.0
196.0037 230.0
196.9915 682.0
205.0224 753.0
206.0354 220.0
207.1246 394.0
209.1177 194.0
211.1198 203.0
213.0034 185.0
214.9167 689.0
215.1379 160.0
217.0974 212.0
230.9907 189.0
232.9291 626.0
235.1058 7083.0
236.1101 1112.0
237.1088 125.0
247.2052 835.0
248.2119 134.0
249.9841 331.0
250.9375 136.0
253.1301 352.0
253.9640 166.0
255.0268 219.0
255.1068 321.0
255.9574 115.0
256.0333 546.0
258.0340 210.0
258.1423 138.0
258.9729 131.0
261.0272 121.0
263.1031 677.0
264.1045 157.0
264.9194 530.0
265.1168 665.0
266.1629 307.0
272.1358 115.0
273.0115 873.0
273.2211 115.0
274.0193 249.0
274.9474 729.0
282.1381 148.0
282.9264 234.0
283.1372 282.0
284.1696 1186.0
285.1705 179.0
286.9329 337.0
289.9835 205.0
290.6587 189.0
291.2306 1472.0
292.2326 268.0
293.1114 845.0
304.8945 122.0
305.9524 162.0
307.0082 1168.0
308.0072 152.0
308.6429 185.0
309.0016 150.0
312.1462 294.0
316.9351 229.0
317.0828 140.0
318.9207 111.0
319.0741 169.0
321.0483 191.0
324.9566 135.0
325.6162 144.0
334.9496 132.0
335.2520 135.0
340.1407 138.0
341.0322 108.0
342.1674 120.0
342.9379 255.0
344.8773 147.0
346.6222 122.0
347.9721 148.0
348.8214 152.0
348.9607 113.0
349.8957 238.0
352.1380 231.0
353.0832 152.0
355.0661 232.0
357.9673 123.0
359.1457 205.0
359.6411 194.0
360.9454 123.0
363.2101 348.0
363.6378 119.0
364.1499 132.0
364.1621 190.0
365.1216 142.0
366.8357 284.0
366.9063 144.0
367.6873 136.0
367.9075 474.0
368.9015 269.0
369.1284 130.0
369.9096 167.0
371.0962 197.0
372.1779 119.0
372.6602 121.0
373.1474 137.0
373.6408 248.0
375.9740 118.0
381.2209 3855.0
382.1509 935.0
382.2244 863.0
382.6513 405.0
382.9121 135.0
383.2343 110.0
384.9134 134.0
385.9195 146.0
386.6336 118.0
386.9080 415.0
397.6414 159.0
398.1333 110.0
403.6305 705.0
404.1323 427.0
404.6325 142.0
406.2030 116.0
406.6638 345.0
407.1579 206.0
408.9264 161.0
409.1625 238.0
409.9295 111.0
410.9225 529.0
411.1595 265.0
411.1633 183.0
411.1644 299.0
411.2915 358.0
411.9340 126.0
412.2674 391.0
412.8574 113.0
413.1135 213.0
413.2776 107.0
413.5707 153.0
419.6632 173.0
423.0776 539.0
423.6629 153.0
423.7830 119.0
424.0772 109.0
424.0895 193.0
424.1771 177.0
424.6731 121.0
425.1699 108.0
426.1610 294.0
426.9303 258.0
427.6566 329.0
428.6655 114.0
428.9329 453.0
429.1637 198.0
429.1718 321.0
430.6926 140.0
432.6580 795.0
433.1608 440.0
433.6529 152.0
436.6824 140.0
437.1929 378.0
437.6840 1036.0
438.1826 533.0
438.6795 169.0
439.2165 169.0
440.2143 119.0
441.1722 457.0
441.6724 233.0
442.1757 135.0
442.8720 172.0
443.1572 387.0
443.6642 224.0
445.1912 133.0
445.6067 121.0
446.1960 1782.0
446.6992 1056.0
447.1944 318.0
447.2590 309.0
447.6951 124.0
450.6818 118.0
451.1892 198.0
451.6790 140.0
452.1932 145.0
453.1759 123.0
454.1964 446.0
454.6731 906.0
455.1694 1200.0
455.6633 689.0
456.1621 282.0
458.2240 413.0
458.7226 225.0
460.1907 446.0
460.6913 170.0
461.1694 124.0
463.1774 140.0
463.5111 143.0
463.6807 636.0
464.1737 1262.0
464.6775 722.0
465.1845 232.0
466.1781 145.0
471.1875 239.0
472.1766 119.0
473.1677 891.0
473.6691 575.0
474.1713 169.0
474.8360 118.0
475.2106 135.0
475.8326 115.0
476.5218 294.0
476.8555 236.0
479.1696 162.0
481.6845 124.0
485.1525 580.0
485.6499 254.0
487.6774 309.0
488.1803 156.0
488.6892 187.0
492.2532 424.0
493.2060 195.0
493.2551 192.0
493.7050 179.0
494.7488 112.0
496.6794 126.0
497.1825 118.0
497.6800 377.0
498.1726 283.0
501.7162 254.0
502.2061 307.0
502.7083 187.0
503.2655 186.0
503.7709 115.0
505.2003 1027.0
505.6940 2044.0
506.1989 1477.0
506.7008 572.0
507.1966 193.0
507.6875 121.0
508.8481 152.0
509.1822 141.0
510.1879 156.0
510.2648 377.0
510.7074 462.0
511.1841 379.0
511.2600 137.0
511.6830 235.0
513.7212 762.0
514.2234 471.0
514.7273 197.0
516.2443 111.0
516.7475 193.0
519.1961 487.0
519.5022 233.0
519.6932 1001.0
519.8414 205.0
520.1932 536.0
520.7002 209.0
527.7120 132.0
528.2002 6252.0
528.7043 3958.0
529.2045 1571.0
529.7019 523.0
529.8630 133.0
530.2009 102.0
530.2013 273.0
531.7614 111.0
536.1849 125.0
539.7041 164.0
540.2146 123.0
542.7616 122.0
546.2531 402.0
546.7545 120.0
548.2128 167.0
548.5541 146.0
548.8908 142.0
549.2237 146.0
550.7091 128.0
552.2412 169.0
552.7379 166.0
553.2490 119.0
554.5723 195.0
554.9040 255.0
555.2115 127.0
556.2506 177.0
556.5938 229.0
556.9273 165.0
559.2053 280.0
559.7146 325.0
560.2039 142.0
561.9288 174.0
562.2603 179.0
562.9434 310.0
563.2793 388.0
563.6194 208.0
565.2040 156.0
565.7152 288.0
566.2174 230.0
566.7087 111.0
568.8976 351.0
569.2353 357.0
569.5696 212.0
570.5932 128.0
570.9244 154.0
571.2549 141.0
573.2681 119.0
573.3957 179.0
574.2366 237.0
574.5762 554.0
574.7265 523.0
574.9112 515.0
575.2211 414.0
575.2436 328.0
575.7233 154.0
576.2646 272.0
576.6012 308.0
576.9347 129.0
578.6091 549.0
578.9417 535.0
579.2759 281.0
579.6148 124.0
580.2342 248.0
580.7339 201.0
581.2286 122.0
583.2442 1263.0
583.7388 2460.0
584.2399 1380.0
584.7413 560.0
585.2462 196.0
585.7583 150.0
587.2751 158.0
587.6089 310.0
587.9495 240.0
588.2810 131.0
589.2440 211.0
590.2442 107.0
591.2841 1065.0
591.7652 223.0
592.2475 5386.0
592.3069 514.0
592.7505 3652.0
593.2526 1366.0
593.2829 3915.0
593.3190 152.0
593.6152 3426.0
593.7594 533.0
593.9513 2025.0
594.2489 219.0
594.2871 759.0
594.6215 228.0
623.3463 534.0
624.3562 214.0
649.8224 139.0
698.8077 120.0
728.8344 126.0
729.3351 150.0
731.3507 135.0
748.3100 137.0
752.3940 809.0
753.3918 346.0
754.3641 139.0
802.3524 112.0
802.8714 219.0
812.3207 173.0
915.4506 675.0
916.4533 370.0
916.4592 369.0
1055.4394 152.0
END IONS
BEGIN IONS
TITLE=Spectrum 1GLYPHOS_DYYFALAHTVR_1356.csv DRIFT_TIME=16.6173 16.6485 16.1042 16.4023 16.8392 16.2601 16.7323 16.6428 16.4357 16.4198 17.358 16.4866 16.9008 16.9016 17.5465 17.0869 16.893 18.1769 17.9456 20.1976 17.5164 20.3389 17.5927 18.3794 20.0447 21.1058 18.7843 21.0708 19.889 22.9253 20.6753 18.7979 20.3314 21.5406 20.2369 20.3535 20.0809 18.9046 19.3504 23.8079 22.3703 22.0382 22.4069 26.5515 24.0454 24.3413 21.9358 29.5791 25.7118 25.8065 28.0782 26.9728 29.6042 25.6232 25.8725 29.0744 27.945 29.2791 29.1385 31.1251 34.3305 29.3729 39.1074 29.0551 28.2444 31.4234 31.6917 31.375801 30.2573 21.5148 34.6932 31.904999 31.2164 30.2607 36.6658 35.0039 32.9814 34.6034 37.4537 35.5941 35.6271 33.9628 33.4214 34.1116 36.5646 36.5958 36.0707 35.3992 26.4953 29.4273 34.0079 31.1572 45.1571 33.9169 25.5576 47.0837 31.889801 38.9966 39.4285 34.1077 29.5427 33.2686 33.1905 33.1878 39.1566 39.6883 55.246 39.4199 34.9202 44.0111 31.4431 43.3152 40.9183 43.9802 38.8411 38.3966 38.283 43.8528 51.6959 46.4473 37.1702 38.3195 41.8168 33.902 39.6225 48.6108 43.8396 42.1672 39.3823 39.8216 40.1584 44.0795 51.3723 42.6132 51.3511 50.8017 50.2549 43.0212 51.8075 35.22 35.4106 44.9692 41.7904 46.5896 44.1946 55.6932 52.7597 50.354 53.4453 57.9861 46.0833 55.4789 45.8181 52.9247 40.8316 46.8371 48.9782 46.2423 47.0799 30.6048 62.2503 30.4716 29.8894 51.298 55.0139 48.0749 53.2407 37.1038 56.5369 57.1594 51.978 57.2162 47.3252 50.2435 57.1923 51.6475 58.2179 51.2196 42.1244 46.9095 42.4665 49.9807 51.6024 51.9157 45.6216 66.8059 39.8748 52.7593 38.8731 53.0241 62.6866 52.4879 54.6045 38.8436 39.8631 34.1003 66.7546 71.9508 55.0286 65.4658 65.5185 57.822 69.1914 68.8364 41.3162 41.3448 57.1345 43.6587 43.0019 72.7574 77.2971 78.1948 40.7696 43.9305 77.9519 41.2829 48.9717 49.1647 72.3615 46.8794 46.9235 71.6215 46.7339 45.7709 76.0211 77.0911 72.4259 63.7464 82.8753 77.4479 78.333 50.2666 51.0647 86.6938 87.4343 88.1024 88.9221 45.9003 93.2776 93.3443 98.0604 96.5421 54.6984 54.7267 95.2877 95.7437 98.8021 66.5854 105.0952 104.8543 103.7248 72.9366 117.4407 80.258 84.2703 131.1537 129.2669 129.2433 130.1439 141.2338 146.7432 146.2194 148.363 148.9969 155.6828 
PEPMASS=678.343
CHARGE=2+
70.0630 263.0
72.0796 1099.0
73.0268 171.0
84.0777 635.0
86.0943 2421.0
87.0438 257.0
87.0984 162.0
89.0566 804.0
104.0671 472.0
110.0681 902.0
120.0777 883.0
121.0628 268.0
122.0776 4463.0
123.0808 254.0
129.0981 2238.0
130.0849 352.0
133.0823 707.0
136.0714 6145.0
137.0751 553.0
143.1140 2469.0
144.0614 232.0
144.1185 254.0
146.0571 158.0
147.1100 704.0
155.1119 144.0
157.1295 166.0
158.0902 199.0
159.0155 237.0
159.0854 414.0
160.0224 116.0
160.0923 150.0
165.0868 201.0
169.0937 349.0
169.1298 148.0
171.1091 567.0
173.1205 128.0
175.1136 1523.0
177.1046 196.0
178.0462 343.0
180.0292 228.0
183.1067 192.0
185.1225 135.0
191.1124 178.0
197.1594 164.0
201.1211 228.0
209.1017 306.0
210.0201 133.0
212.9734 177.0
214.9117 197.0
219.1058 150.0
228.1258 181.0
229.1149 203.0
230.9849 305.0
231.0908 120.0
232.9240 167.0
233.0871 131.0
239.1086 270.0
240.1269 1092.0
241.1322 162.0
242.1435 317.0
242.1808 241.0
244.0859 155.0
247.1990 465.0
248.9954 126.0
249.9783 390.0
251.0948 5652.0
252.0985 1031.0
253.1037 133.0
255.0989 173.0
256.6233 125.0
258.1376 263.0
262.1300 298.0
263.1381 162.0
263.9754 113.0
271.1716 175.0
272.1523 157.0
273.0050 414.0
274.0132 826.0
274.1815 242.0
275.2015 547.0
276.2051 116.0
279.0905 1050.0
280.0918 188.0
281.0931 306.0
283.1376 691.0
284.1389 157.0
285.1472 160.0
286.1360 118.0
286.9296 110.0
287.9345 244.0
289.9781 188.0
291.0399 155.0
291.2240 597.0
292.0264 205.0
292.1568 224.0
296.1921 188.0
297.0682 151.0
297.1519 128.0
299.1652 434.0
300.9048 252.0
305.9408 440.0
306.9997 1624.0
308.0002 291.0
308.9980 231.0
310.1661 973.0
311.1315 406.0
311.2921 116.0
312.1427 202.0
318.9182 191.0
322.1796 144.0
322.9736 184.0
327.1255 122.0
331.9628 134.0
334.1345 117.0
335.0116 597.0
337.0137 115.0
342.9328 190.0
343.1473 197.0
343.2260 248.0
344.1774 126.0
344.9443 206.0
345.9473 151.0
347.9433 158.0
348.6997 258.0
353.0230 262.0
353.2085 142.0
357.1701 117.0
357.9663 365.0
360.9464 115.0
363.9488 220.0
364.9574 111.0
365.9446 335.0
370.2361 455.0
370.9866 152.0
371.2192 412.0
372.2283 102.0
375.2263 526.0
375.9768 310.0
382.1657 191.0
384.2151 383.0
384.7131 145.0
384.9123 119.0
386.9015 169.0
386.9867 361.0
387.9736 116.0
388.2803 396.0
393.2165 190.0
397.1302 110.0
398.2372 114.0
401.2739 160.0
401.9195 153.0
402.2360 245.0
404.9992 170.0
408.1835 171.0
409.0009 535.0
410.9239 162.0
418.8940 149.0
419.9226 245.0
421.9259 257.0
423.0892 271.0
423.2473 223.0
423.5889 129.0
424.0914 110.0
425.9483 337.0
426.1798 161.0
428.9314 183.0
433.0298 218.0
437.8213 109.0
442.1518 754.0
443.1571 203.0
443.9597 645.0
444.1932 184.0
446.9496 161.0
447.9385 127.0
448.2055 154.0
449.0068 507.0
449.2173 226.0
452.9110 167.0
457.7495 377.0
457.8794 126.0
458.2497 166.0
458.9455 125.0
459.9302 242.0
460.9526 144.0
461.8754 154.0
467.1242 249.0
471.7487 119.0
471.9517 102.0
472.2485 122.0
476.9475 235.0
477.2417 181.0
478.9500 144.0
479.9329 109.0
480.7507 159.0
481.2547 108.0
485.1319 109.0
485.1407 253.0
494.2799 249.0
494.9103 108.0
495.2563 335.0
499.2495 123.0
500.9764 150.0
512.2831 883.0
513.2881 245.0
513.7140 264.0
514.2111 139.0
515.9117 401.0
516.2270 195.0
516.7225 191.0
517.3120 236.0
525.2676 637.0
526.2729 197.0
528.2024 104.0
530.2840 127.0
543.2756 163.0
543.6639 112.0
546.2424 401.0
546.7474 238.0
555.2357 150.0
558.7981 190.0
559.2979 134.0
564.2413 125.0
565.2164 242.0
565.7142 142.0
566.2882 205.0
567.2928 130.0
570.2832 122.0
572.9304 192.0
581.3192 147.0
583.3158 1494.0
584.3186 376.0
594.3132 269.0
594.8115 202.0
618.3674 477.0
619.2498 334.0
619.3714 140.0
620.2531 144.0
677.2940 146.0
677.3235 186.0
679.4085 108.0
680.3776 588.0
681.3838 329.0
682.3305 142.0
682.6683 122.0
696.3944 1053.0
697.4039 423.0
717.4317 222.0
751.8577 124.0
767.4309 1853.0
768.4372 851.0
769.4410 273.0
816.8871 134.0
831.4735 331.0
880.4063 189.0
902.9150 133.0
914.5020 1252.0
915.4994 666.0
960.5052 650.0
961.5116 275.0
1059.5573 176.0
1077.5693 409.0
1078.5561 290.0
1116.5804 275.0
1117.5952 196.0
1187.6376 263.0
END IONS
BEGIN IONS
