BEGIN IONS
TITLE=Spectrum 1BSA_DAFLGSFLYEYSR_01-1000counts_9000MSres-export.csv DRIFT_TIME=16.066 15.865601 15.9716 16.0176 16.0738 16.0472 16.1539 16.0569 16.1317 16.2401 16.1935 16.1875 16.1494 15.982399 16.1452 16.1232 16.1686 16.207 16.1679 16.192 16.1808 16.1953 16.1444 16.2324 16.2966 16.2944 16.4504 16.3326 16.3479 16.4217 16.3499 16.3542 16.3956 16.3438 16.3412 16.4266 16.5375 18.0479 16.5817 16.4457 16.3752 16.4872 16.9237 16.5631 17.1634 16.5574 16.7574 16.5961 21.4715 17.0502 17.9556 16.8946 16.9836 16.9033 20.0052 17.0699 16.2888 17.3799 17.1521 18.5767 22.9331 22.8445 16.9017 25.2497 17.5751 18.0118 17.8816 19.8992 19.3402 24.2419 26.9792 26.8263 28.6132 17.7206 21.9366 17.4145 16.7653 20.4952 18.983 19.4205 18.9946 19.6787 19.5155 19.4305 19.8589 22.2477 22.462 18.9378 21.1559 21.3693 21.4074 18.407 16.7246 20.6884 22.2301 25.9936 24.6285 25.6298 25.7332 23.3405 23.477 24.3416 24.0526 18.2908 22.0879 25.4325 25.5413 26.7732 28.946 24.8491 33.4541 34.4297 24.3439 27.641 27.8154 26.6681 26.9174 29.0641 28.9229 28.8844 29.2666 30.3459 16.6102 29.7554 32.1739 31.436897 31.044998 28.2504 29.3735 33.7618 31.452698 32.2279 33.1332 36.0809 17.7358 17.6898 36.5962 32.5945 38.069 19.1908 19.3646 35.1293 37.0044 36.087 39.9421 31.433502 29.6048 38.077 38.882 20.2759 20.308 38.9988 35.8032 36.0322 22.2267 22.819 22.8506 20.7465 20.9214 37.8382 34.878 37.6186 41.8056 40.959 34.1747 41.895 41.7248 54.6975 54.8379 55.5989 41.0869 22.1954 44.2629 43.8542 43.9309 43.2501 24.3867 25.2799 41.4628 43.174 44.4197 36.5776 45.4571 43.5979 41.593 45.1673 45.5967 42.3454 42.1975 28.0102 29.7041 26.2293 26.3382 30.7195 30.0988 26.6509 26.9701 49.4733 31.1848 32.2454 32.5297 52.1223 55.4644 58.8036 48.157 35.0974 32.4692 32.3518 32.8317 59.594 32.8577 32.7404 33.1076 59.8998 60.0176 59.3083 61.3409 61.2863 61.1193 61.2388 61.0126 63.041397 37.4133 38.0111 39.3742 38.376 39.5813 39.2291 40.5016 40.834 40.2504 40.8606 40.6737 39.8107 39.874 40.0657 40.602 40.578 40.5234 40.5641 40.7059 41.2932 40.7439 63.3424 65.564 62.6115 64.5131 41.0273 38.9034 38.8463 39.0103 40.7239 41.4741 41.986 41.0445 42.6789 42.4831 41.5169 42.204 41.9622 42.1392 42.4811 42.3956 42.7514 42.7213 42.3716 41.9778 64.7381 42.0055 75.265 41.7721 40.1219 42.2399 62.9283 37.5554 69.0992 39.4571 36.8023 39.158 42.1238 62.528 38.127 74.1061 42.0969 40.3825 40.0805 41.9453 62.8742 41.6631 73.5165 41.721 41.664 41.8275 61.9123 40.6397 40.2939 72.2786 76.9425 76.182 76.5214 76.7228 80.8969 92.7703 92.0929 93.3818 106.7517 105.1013 105.4825 109.8609 108.6395 112.4523 112.8434 113.5592 113.1397 117.173 132.4731 131.1741 130.1393 132.1204 154.8036 
PEPMASS=784.377
CHARGE=2+
101.0582 388
103.0539 1067
111.0438 1004
114.0533 456
114.0903 433
119.0852 179
120.0782 15411
120.1878 121
121.0838 2280
122.083 248
133.0858 873
136.075 269
141.0623 271
145.0589 179
146.0948 215
147.0796 434
155.0681 1642
159.0745 2789
160.0779 254
171.1099 247
173.0787 3414
174.0833 396
175.1174 618
177.1103 540
187.0697 2858
188.0755 357
190.0846 378
191.1123 183
195.113 358
201.1001 314
203.0601 425
207.112 262
213.1106 575
217.1055 1631
218.1075 197
219.0696 1314
220.0758 210
227.1992 577
229.0829 250
231.1221 1030
232.1213 175
233.0856 263
233.1657 960
237.0825 404
240.134 161
243.1206 180
244.0947 197
251.1033 168
255.2275 372
258.137 148
259.1649 227
261.1205 2802
262.1474 1403
263.1509 214
265.2499 195
268.1617 144
272.1226 241
274.1636 652
275.1637 171
281.1137 258
281.2444 498
282.2526 117
283.1699 241
283.262 625
286.1383 346
288.1343 195
289.1183 537
295.127 370
306.1429 228
307.2575 212
309.275 5827
310.2789 987
311.289 176
316.1258 245
318.1797 191
321.1226 168
325.6843 122
329.1771 126
331.173 186
333.1866 143
334.1359 1802
335.1335 464
345.1514 3068
346.1544 640
347.153 204
349.1356 165
357.1745 141
358.156 165
359.1663 1725
360.1705 486
361.1733 148
365.1594 213
371.1307 147
371.2279 137
375.1961 246
377.2145 244
385.1777 187
387.1992 239
388.1856 127
389.1797 592
390.1837 180
391.1502 380
392.1493 165
394.2351 165
401.1105 417
403.1911 679
404.1913 190
405.2105 294
408.182 146
409.162 526
410.2871 847
411.2868 281
415.1232 321
417.2097 406
419.2231 162
423.176 411
424.1706 146
425.2124 1915
426.2113 548
427.2156 115
430.1726 259
433.1945 128
439.5793 149
444.2019 127
446.1699 191
447.2205 524
448.2166 167
449.1306 360
451.1167 128
459.2277 144
463.2487 132
467.2002 283
475.2169 123
476.2471 582
476.619 192
476.9497 123
477.2497 182
478.1877 218
480.2573 146
485.2967 138
485.6227 143
486.2364 185
488.23 379
489.2376 182
490.3026 148
495.1382 117
497.2206 153
504.242 718
505.2517 222
513.6427 106
513.9752 107
514.1918 265
517.2215 635
518.2218 185
522.311 196
522.6439 165
522.9798 122
523.7407 143
524.2493 133
531.2429 1124
531.8129 160
532.2393 302
534.2678 141
537.238 121
541.2536 128
545.2727 138
546.2659 222
546.4102 1175
547.4183 464
548.4198 114
550.2267 115
552.2535 122
553.2682 135
554.252 2025
555.2612 638
556.2481 130
559.3303 131
559.6743 149
561.2491 109
563.2787 244
573.2624 524
573.8451 156
574.26 189
575.2682 282
581.2357 209
591.2731 534
592.2735 157
595.2467 303
596.2611 131
596.6985 110
605.3626 121
608.7905 353
609.2987 295
614.0398 126
614.3711 150
617.7973 475
618.2992 344
639.2624 108
642.0438 158
642.3817 254
642.7244 171
648.2645 114
650.2757 119
665.3571 110
673.335 138
676.6588 133
682.3233 321
682.8298 245
683.3335 168
684.3464 122
691.3274 387
691.8361 302
692.3345 126
697.3224 131
699.3071 123
700.2786 145
717.3122 4185
718.3156 1667
719.3235 408
720.3306 423
721.3255 155
738.3356 282
743.9363 127
750.4534 238
756.1225 114
756.463 181
756.793 135
757.4649 123
757.7027 136
757.9614 135
760.7186 129
760.96 218
761.2079 244
761.4601 153
761.7038 148
761.9607 167
762.2042 151
762.4592 122
764.4585 166
765.217 174
765.4628 262
765.7128 179
765.9694 129
767.314 741
767.4602 583
768.3195 263
768.4621 278
768.4704 128
775.3517 302
775.8585 277
776.3552 175
778.472 649
778.803 472
778.9718 505
779.1382 449
779.2226 267
779.476 564
779.7225 150
781.2655 177
781.4706 508
781.6977 441
781.9749 476
782.226 813
782.4699 613
782.7254 498
782.9758 522
783.2261 500
783.3436 216
783.4791 779
783.4926 598
783.7273 366
783.8049 215
783.9826 222
784.3415 243
784.4623 1464
784.486 514
784.8088 914
784.9572 1009
785.1366 690
785.2812 271
785.4023 857
785.4672 973
785.4844 271
785.6879 256
785.8125 176
785.9786 469
786.2272 368
786.4101 306
786.4739 898
786.5262 139
786.7226 957
786.9817 1110
787.227 509
787.3284 1449
787.476 854
787.9854 181
813.39 154
830.3929 2683
831.4003 1514
832.4036 419
833.4058 179
851.4178 196
977.4601 2192
978.4658 1325
979.47 364
1064.495 1885
1065.4955 1382
1066.4987 445
1103.5072 463
1104.4955 333
1121.5007 7606
1122.5123 5120
1123.521 1853
1124.5391 510
1125.501 164
1234.594 2252
1235.5905 1408
1236.6143 562
1237.5977 188
1381.6715 233
END IONS
BEGIN IONS
TITLE=Spectrum 1BSA_DAFLGSFLYEYSR_02-1000counts_9000MSres-export.csv DRIFT_TIME=16.1042 15.997601 16.0418 16.0084 16.1022 16.1199 16.0477 16.1422 16.1316 16.1201 16.0693 16.1674 16.0233 16.2817 16.2152 16.2253 16.1194 16.1108 16.1318 16.133 16.1263 16.2078 16.3503 16.3458 16.1944 16.1891 16.198 16.1821 16.1665 16.2983 16.2944 16.1167 16.22 16.4575 16.327 16.3566 16.2917 16.5011 16.3579 16.3964 16.4258 16.315 16.4351 16.4249 16.2824 17.9939 16.6324 16.5091 16.4165 16.6419 16.8167 16.6217 16.3824 16.5676 17.0295 16.7554 16.4462 16.6745 21.1225 16.8904 17.8987 17.0035 17.027 16.6375 17.0691 16.5557 17.2896 17.1687 16.7164 18.6983 22.9185 23.3026 16.739 25.9265 17.6996 18.0763 18.1653 17.2003 17.8305 19.7154 19.6136 25.0349 26.9978 27.2356 28.4445 18.1382 22.0107 17.5833 16.7153 19.9045 20.5222 19.0624 19.7517 19.1247 19.5211 16.6363 19.5746 19.6575 19.7179 21.8919 19.9921 18.3613 20.9737 21.7551 16.5421 18.9849 16.2734 22.1142 26.9329 24.9716 25.9447 26.4076 23.1805 23.3848 24.0774 18.6261 21.9276 25.4371 25.6777 26.6577 28.1427 29.7499 24.99 33.7006 33.774 24.2541 27.5413 27.4068 25.9956 31.8852 27.2434 28.9831 29.559 29.644 16.6285 31.190598 31.119102 16.968 16.9032 28.273 23.2687 29.1273 34.5205 32.5731 33.9947 36.7862 17.919 17.9257 37.4858 19.1075 19.2216 37.726 36.9229 39.7248 38.7715 38.8071 39.7468 36.3667 35.3014 22.7995 22.3031 37.6318 34.3781 34.9147 38.2408 41.65 41.4699 42.026 54.7843 54.6252 42.8551 44.2847 43.8856 43.4392 25.8035 43.8744 45.1546 43.7005 43.3277 44.1023 25.2961 39.7757 45.7811 42.3939 26.1606 30.9335 30.3517 27.2627 26.4781 31.091 48.6872 32.7934 58.3366 61.1589 60.9142 61.725 60.3877 59.7407 40.0984 38.9961 38.686 39.7463 41.0935 41.2526 41.7047 40.6979 39.9159 40.6833 40.3564 62.4145 63.292297 39.5367 39.6885 41.2067 41.8075 42.4192 40.7758 42.3008 42.0743 42.3089 41.8858 42.9262 42.7659 42.6032 41.9989 41.7728 41.3116 73.1704 42.1074 42.0224 42.2934 63.299698 37.1309 74.293 39.762 36.8376 39.1763 63.393295 37.7559 78.1459 39.1333 42.0495 63.671204 41.8277 42.3654 41.6031 42.2358 62.0475 40.149 39.993 70.8568 76.9589 77.7116 76.2278 74.5567 92.2773 91.7048 92.3001 104.1228 108.5033 105.3928 107.8792 101.9917 105.7378 109.6011 109.0188 112.0655 111.618 113.6732 113.5906 132.4574 130.8871 132.8914 130.0449 
PEPMASS=784.377
CHARGE=2+
101.0589 448
103.0535 1401
111.0428 1044
113.0628 202
114.056 567
114.0903 409
119.0829 186
120.078 15574
121.084 2219
122.0836 277
124.0388 219
129.0532 175
133.0856 584
136.0743 538
138.094 150
141.0612 264
146.0939 200
147.0797 578
155.0693 1867
156.0723 220
158.095 303
159.0752 2831
160.0794 288
169.0836 225
171.1111 282
173.0788 4021
174.0844 444
175.0484 180
175.1173 776
177.1096 390
187.0708 2219
189.1025 208
190.0862 442
191.1097 185
193.0623 190
193.0944 187
195.1116 326
201.0991 335
203.0609 405
207.1123 321
213.1109 686
217.1034 1610
218.1096 274
219.0705 1490
226.1068 147
227.2016 392
229.0838 252
231.1204 938
232.1293 163
233.0824 267
233.1611 800
234.1628 184
235.1126 165
237.0836 440
240.1307 171
244.0877 164
245.1226 237
251.1017 161
255.2252 191
258.1455 213
259.1729 323
261.1206 2493
262.1497 1306
263.09 194
268.153 145
272.1208 283
274.1659 877
275.1714 164
277.0989 195
281.1121 301
281.2445 345
282.2468 105
283.1719 274
283.2583 437
286.1365 289
288.1281 162
289.1165 521
292.1283 205
293.1109 181
295.1196 342
306.1429 178
307.2611 144
309.2763 4423
310.2809 687
311.2858 126
316.1241 231
318.1848 158
321.1357 200
325.6916 151
329.1824 149
330.1803 116
331.1732 141
333.1846 121
334.1364 1422
335.1369 368
338.7028 144
345.151 2876
346.1508 630
347.1562 210
349.1296 193
357.0775 179
358.1563 162
359.1659 1466
360.1726 346
364.1196 135
365.1578 230
371.1285 145
373.1683 136
377.215 189
385.1804 256
387.201 214
388.1905 163
389.1765 544
390.1742 153
391.15 408
394.2344 141
401.1057 517
403.1941 546
404.195 152
405.2061 307
406.1986 165
408.1878 342
409.1615 355
410.2863 855
411.29 204
415.1293 355
417.2099 335
418.2102 116
419.2171 146
419.2306 133
423.1693 378
425.2103 1604
426.2116 390
430.1812 305
439.9258 146
446.1735 213
447.2198 333
448.2694 182
448.5989 122
449.1345 352
449.7628 121
451.1125 146
459.2214 137
467.2048 193
475.2214 106
476.2484 388
476.6233 134
476.9491 142
477.2518 126
485.2899 183
485.6226 179
488.2335 320
489.2295 136
490.2989 123
504.2436 423
505.2515 153
514.1977 205
517.227 445
518.2371 145
522.3168 135
522.6469 172
531.2389 834
531.3291 176
531.8238 153
532.2443 245
534.2549 137
537.2364 183
546.2551 160
546.4047 702
547.4144 300
550.2324 110
553.2724 122
554.2514 1585
555.2559 528
559.3346 135
563.2679 156
568.2672 117
573.2639 385
574.2531 118
575.273 154
582.3399 129
587.2056 134
591.2821 324
595.2395 236
608.7906 153
614.039 141
614.3697 117
617.7931 166
618.3018 134
642.3842 127
673.3311 154
682.8292 102
700.2904 164
717.3102 3217
718.3114 1481
719.3154 262
720.3191 239
721.3208 131
750.4581 153
756.1216 149
756.4512 152
757.4563 120
760.7158 127
760.956 220
761.2185 156
762.4644 102
764.454 109
765.2169 124
765.4681 159
767.315 489
768.307 208
775.3672 132
775.8669 153
778.469 447
778.802 316
778.9717 257
779.146 283
779.4784 241
781.4714 238
781.6795 182
781.9714 273
782.2206 424
782.4725 423
782.7288 307
782.9758 267
783.2228 266
783.4775 441
783.4876 395
783.7229 164
783.9774 171
784.1557 154
784.3429 169
784.4578 1150
784.4941 218
784.8065 473
784.9574 785
785.1412 397
785.4023 732
785.466 650
785.4811 202
785.9756 273
786.2216 188
786.407 312
786.4802 467
786.729 426
786.9809 333
787.2342 237
787.3251 884
787.4831 461
787.9845 157
813.3719 144
830.3948 2242
831.402 907
832.4127 296
833.4065 140
977.4605 1619
978.4631 1089
979.4701 360
1064.4938 1411
1064.4949 1357
1065.4908 979
1066.4891 382
1066.508 259
1067.4847 149
1103.5029 400
1104.501 235
1121.5048 6366
1122.5118 3687
1123.5219 1569
1124.5304 416
1234.5942 1757
1235.5953 1160
1236.602 440
1237.6138 190
END IONS
BEGIN IONS
TITLE=Spectrum 1BSA_EYEATLEECCAK_01-1000counts_9000MSres-export.csv DRIFT_TIME=16.081 16.2152 16.0881 16.0224 16.1046 16.108 16.0701 16.1469 16.2406 16.2657 16.166 16.2418 16.2351 15.983299 16.3137 16.1792 16.1844 16.2105 16.3264 16.3111 16.2026 16.7329 16.2398 16.2794 16.2273 16.4064 16.246 16.5071 16.3364 16.706 16.4456 16.4755 16.5281 16.5225 16.4326 16.7853 16.7579 16.6043 16.5237 16.7019 16.6752 16.7662 16.9062 17.076 22.0432 17.1968 16.9472 16.8662 17.5614 17.4695 17.4325 17.5463 18.1631 18.2692 17.8437 27.8093 17.9189 22.2982 17.3099 19.4524 19.5757 20.1486 19.1179 19.0192 16.6252 19.405 18.6672 17.5731 16.4685 16.9115 23.1642 29.8528 29.5889 18.067 32.8252 33.5262 16.4355 20.4518 19.3815 20.92 32.0468 22.2135 19.124 34.8015 35.1331 36.6459 20.1491 17.627 23.5322 25.3245 23.2834 25.8427 25.7456 19.3962 30.2303 29.7877 25.0512 27.4458 27.3562 27.7243 28.2771 25.0739 27.5524 27.5186 16.5133 24.585 16.8248 30.3411 29.5359 28.6474 17.0518 31.2551 26.7305 22.0506 28.8843 29.2409 30.3141 30.8949 31.243202 31.429703 26.9056 25.3649 29.4092 31.3731 29.1023 28.6916 37.4418 32.3637 31.895203 34.06 33.9082 32.8539 33.0646 31.535301 34.9668 37.0729 19.3808 19.924 36.1137 36.489 32.5334 31.0728 39.2101 34.3059 40.3115 23.9838 23.1578 43.1084 25.8825 37.5641 51.9394 51.8907 45.4999 51.9669 43.2975 30.0298 45.691 45.4775 41.1338 45.9928 42.9891 52.9925 44.0471 43.1964 47.3452 47.4593 50.939 46.8177 52.1813 52.0681 58.86 50.2531 56.172 49.4417 59.27 52.9369 61.0874 50.9152 52.6442 52.0928 49.614 47.1733 54.021 50.1374 58.1527 58.219 60.0342 61.6842 65.8097 66.8724 60.5935 63.893295 61.4444 62.9723 61.2046 77.6318 77.7878 77.3759 78.7445 57.0971 66.3471 65.6823 38.1067 64.9011 42.3412 43.0596 40.8664 41.0937 42.7194 42.9873 43.2229 70.9826 46.8238 71.7498 46.4202 44.25 47.4777 47.7908 47.2048 45.5237 45.3259 48.4441 48.0522 49.8077 49.7105 49.2602 49.9905 44.6685 49.7289 91.9448 49.2634 47.401 46.5546 45.9684 46.7558 45.8741 72.0709 46.3092 87.1786 46.0688 72.2047 47.279 87.0915 106.02 50.0886 71.9273 47.5273 88.2034 106.3352 49.4898 49.1816 72.0462 44.381 49.1125 85.8766 103.1739 43.7886 71.5366 44.1271 89.0769 80.2435 77.9789 79.1809 97.2313 99.8684 113.6185 113.7759 114.5228 126.3655 
PEPMASS=751.8135
CHARGE=2+
101.0525 910
102.0471 568
111.0346 2096
112.0167 1202
113.0505 233
114.0823 1667
119.076 562
120.0716 618
127.0672 276
129.0452 335
133.0747 386
136.0639 1706
137.12 3475
138.0809 178
138.1245 527
147.0683 1502
148.072 173
155.057 4597
156.0613 527
164.0937 182
169.0692 324
171.1241 238
173.0618 8719
174.0698 1055
175.0732 291
177.0973 285
183.0608 165
184.0595 163
187.0806 1531
190.1068 154
193.0814 231
195.1026 285
199.0867 339
201.0311 292
203.0466 592
206.1166 169
213.0958 502
217.0877 3983
218.0943 501
219.039 7304
220.0445 1300
221.0446 275
226.0903 391
227.1084 202
227.1822 475
229.0202 229
231.103 1293
232.1096 223
237.0664 1968
238.0702 288
243.1107 215
245.1188 418
247.0884 1351
248.0878 231
254.1188 204
255.2105 542
259.0712 152
259.1463 280
261.1091 333
263.0809 364
265.0962 1988
266.0973 413
268.133 837
269.135 207
272.0965 145
273.045 159
275.0771 304
277.0737 191
278.0657 151
279.1059 154
281.0923 615
281.2242 892
282.2315 211
283.1497 155
283.2383 977
284.2394 149
285.0691 203
286.1445 293
287.1274 160
293.0857 245
295.2366 134
303.1159 373
305.1328 129
309.253 3127
310.2577 799
311.2663 164
321.0967 315
325.6643 149
327.1155 207
328.149 434
331.1492 152
335.0946 682
336.0928 134
338.6787 138
340.12 306
341.1213 113
345.1237 6377
346.1533 18513
347.1597 3977
348.161 646
349.1027 172
357.0479 148
359.1406 2258
360.139 437
364.0927 269
365.1363 167
371.1015 284
373.1543 570
374.156 173
375.163 142
378.1113 181
378.1503 345
381.1245 121
381.2037 117
383.0709 116
385.1072 150
389.1459 1538
390.1514 313
391.1186 879
392.1201 202
393.1773 164
394.2011 172
395.1386 147
399.1235 239
401.0765 678
402.0764 149
403.1071 419
403.1662 455
404.1104 261
405.1289 109
407.0566 235
409.1256 841
410.1295 214
415.0941 378
417.1764 414
422.1231 284
433.5586 104
434.2336 119
435.1429 236
436.1493 117
437.197 163
449.7372 168
453.1488 272
462.7419 127
463.2189 110
470.5805 113
471.2566 127
475.1726 148
479.9179 118
481.2254 189
482.267 22038
483.2712 8010
484.1496 144
484.2794 1499
487.1749 130
516.9426 139
517.1875 1030
518.1937 350
518.2729 121
519.1889 125
525.2496 158
526.1388 434
527.1762 165
529.1191 119
531.2028 767
532.2063 281
538.1681 447
539.1279 119
539.1681 126
540.1558 128
540.2476 299
545.2116 490
546.1322 124
546.2161 178
556.2525 130
558.1685 231
558.2638 503
561.2094 509
562.2083 131
563.1813 348
571.1801 160
573.1442 199
576.1896 155
587.1539 151
589.2441 294
590.237 105
597.1903 168
598.2052 149
600.2592 130
602.2806 443
611.2112 107
614.2062 144
615.2086 167
616.2286 136
618.1956 134
618.381 10631
619.3864 4517
620.3879 949
621.3955 161
625.2188 114
640.1217 130
667.2036 565
667.8519 132
668.205 179
701.3615 139
701.8708 110
706.8335 206
707.3279 141
710.3704 130
710.8771 147
711.3735 119
717.271 231
718.0528 216
718.2925 131
718.3806 108
724.0521 114
729.6291 120
729.8894 211
730.1405 118
743.8822 177
744.3926 172
746.0605 328
746.3976 378
746.7333 272
750.6364 155
750.8947 354
751.1452 240
751.384 251
751.3976 354
751.4581 261
751.6501 139
751.8814 200
752.0672 276
752.4019 467
752.7445 267
752.8877 208
753.2623 2999
753.3911 303
753.4199 2782
753.891 154
754.2674 1269
754.4011 176
754.4279 1146
754.4995 2432
755.1452 172
755.2388 1209
755.3991 305
755.4195 428
755.5013 1238
755.6418 227
755.8933 131
756.2404 538
756.3632 205
756.4208 160
756.4284 148
756.5104 352
756.8574 207
757.2644 3083
757.3685 110
757.4135 137
796.2352 686
797.2276 297
798.2237 131
909.305 509
910.3071 257
1010.3454 340
1011.3764 184
1012.3552 166
1081.3793 260
END IONS
BEGIN IONS
