BEGIN IONS
TITLE=Spectrum 1 DRIFT_TIME=16.5173 16.4813 16.3994 16.1715 16.383 16.9007 16.0681 16.7062 19.2262 16.4919 16.1997 16.5152 17.3818 16.4906 16.8822 16.4499 17.3696 16.7661 17.2631 16.8826 22.1403 18.2772 18.1899 16.1511 20.4043 17.436 18.1876 17.5706 21.7975 18.0749 20.9337 19.8324 18.5236 19.3645 20.6753 20.1721 19.1207 19.3029 21.1165 23.0964 22.2786 21.1575 22.0649 24.1984 26.3842 24.2034 23.3266 24.2779 25.1609 24.8828 25.1911 24.3574 25.7327 26.2609 26.1007 29.1982 26.0181 28.4822 28.6825 28.9235 39.1755 39.72 28.3764 26.1972 32.2181 31.604301 29.1707 29.8494 30.84 30.8054 30.8118 32.1494 28.2522 28.4319 30.6618 30.8557 31.8624 33.6811 33.4931 33.6681 32.6931 41.8405 34.5862 31.3153 35.1259 32.0491 37.0332 35.3134 35.6341 27.3428 33.3508 21.8946 45.3826 45.5245 37.5119 39.5084 29.8627 32.8763 32.6753 22.2247 33.2515 41.3525 38.2192 38.0579 34.5692 37.7854 34.3692 38.853 22.0981 39.4769 55.4577 26.1893 43.818 49.2164 38.5242 36.7617 23.7898 33.9085 35.6987 39.3148 44.2061 26.2506 53.6274 39.8137 42.2897 28.6999 26.4684 39.0021 50.4826 27.2524 29.0538 45.0495 25.5816 35.9896 44.3466 28.3739 44.1514 43.0924 25.6214 43.263 53.9543 48.7558 30.4103 28.7066 28.6727 43.6663 50.6672 30.3761 50.7154 30.2202 47.2805 51.3859 45.957 44.708 26.5826 42.8383 29.3362 29.8459 29.0946 29.1361 28.9201 58.9586 32.63 32.4951 49.4132 55.2193 48.9678 47.6665 72.1248 57.289 66.9646 62.0645 48.0847 61.9594 42.6975 60.3483 62.0168 27.597 33.4538 48.1851 31.391197 21.3987 47.4702 29.385 33.7839 33.8134 34.0295 53.831 47.0433 32.5026 32.9435 47.7427 33.8697 75.6739 35.003 34.6562 34.2554 33.6832 36.3474 36.1184 35.6709 35.3204 35.1687 35.0238 37.5654 35.1789 35.1382 35.723 27.7611 33.6326 33.7311 36.0394 31.226501 37.1416 36.9453 36.8326 56.7186 36.54 37.3333 36.6004 36.0394 37.2642 35.2551 38.4599 36.3232 36.4934 36.5685 36.593 38.8726 38.2779 38.6199 38.2485 36.1235 26.6156 26.2211 38.2932 38.1439 38.1306 37.8068 36.4054 78.2328 36.7168 36.6996 36.6234 36.5745 48.3819 29.316 26.8131 25.9716 25.9804 36.7049 36.4591 34.7247 34.4305 36.5122 37.3137 39.5096 64.658 38.9764 64.0108 38.7546 41.8222 37.026 39.4885 37.7388 37.1637 40.3035 39.6864 40.5178 40.4002 40.6315 40.3929 39.7688 39.4055 39.5398 39.3215 39.3943 32.5369 31.767601 40.3483 66.1626 40.2056 39.929 65.3517 40.311 41.7248 41.375 41.8158 43.5233 43.5084 40.9294 30.1415 41.4011 29.2666 41.2871 41.3516 41.7636 42.8514 42.8069 42.7642 42.7552 30.5081 31.1708 42.6866 44.8635 42.3704 42.6304 41.7883 48.5607 49.3352 49.3543 31.946098 32.4414 32.9011 31.990402 40.9915 45.9945 45.2711 46.3124 34.0546 33.8061 70.9007 39.8601 39.8157 40.7018 41.7913 42.332 42.3236 38.3152 36.6845 37.1606 37.2157 37.0585 41.035 43.5304 44.0738 44.0697 34.3745 34.169 33.9658 35.8847 38.3558 40.9997 37.8733 83.3809 46.682 35.2073 46.1698 35.9699 45.9662 35.8114 45.2276 37.3112 37.994 37.4605 35.8781 36.4969 36.3225 36.44 44.2715 44.3399 43.9379 46.9525 47.1384 47.0732 47.3486 46.6716 48.1931 36.9023 37.8643 37.8256 37.7221 45.883 44.7904 76.8944 47.4509 49.8749 80.5956 49.8999 49.9243 37.4571 81.2534 37.6042 49.5768 37.6612 50.3518 37.3877 37.1761 81.788 84.3265 58.8951 59.2556 60.7383 60.2724 65.1923 60.8595 102.2268 103.0768 97.7894 69.5192 70.5127 106.7527 124.1169 125.4693 129.5659 135.2102 
PEPMASS=589.283
CHARGE=2+
61.0503 241
70.0761 463
72.0924 205
80.0246 373
84.0923 999
86.1096 630
87.0585 327
89.0726 1321
99.0016 176
104.0863 294
110.0434 1671
110.0871 475
120.0984 1330
121.0822 715
122.0996 2757
123.1026 183
129.1217 441
130.0837 229
130.106 215
133.1058 1582
134.9842 303
136.0955 4730
137.1 475
140.0656 146
145.0147 803
147.0995 277
147.1356 383
149.1169 149
152.9963 211
156.1015 141
159.043 1333
163.0275 195
165.1145 606
166.081 277
175.1102 365
175.146 885
177.1402 394
178.0801 332
179.0458 208
187.171 124
190.1133 194
191.131 144
193.1502 119
195.0239 2660
196.0334 230
197.0213 682
205.0534 753
206.0666 220
207.156 394
209.1494 194
211.1518 203
213.0357 185
214.9492 689
215.1705 160
217.1303 212
231.0257 189
232.9644 626
235.1414 7083
236.1459 1112
237.1447 125
247.2426 835
248.2495 134
250.022 331
250.9755 136
253.1684 352
254.0025 166
255.0654 219
255.1454 321
255.9962 115
256.0721 546
258.0731 210
258.1814 138
259.0121 131
261.0667 121
263.1429 677
264.1445 157
264.9595 530
265.1569 665
266.2032 307
272.177 115
273.0528 873
273.2625 115
274.0608 249
274.989 729
282.1808 148
282.9692 234
283.1801 282
284.2126 1186
285.2137 179
286.9764 337
290.0274 205
290.7027 189
291.2747 1472
292.2769 268
293.1558 845
304.9407 122
305.9987 162
307.0547 1168
308.0538 152
308.6896 185
309.0484 150
312.1935 294
316.9831 229
317.1308 140
318.969 111
319.1224 169
321.0969 191
325.0058 135
325.6655 144
335.0003 132
335.3028 135
340.1922 138
341.0838 108
342.2192 120
342.9898 255
344.9295 147
346.6747 122
348.0248 148
348.8742 152
349.0135 113
349.9487 238
352.1913 231
353.1367 152
355.1199 232
358.0215 123
359.2001 205
359.6956 194
361.0001 123
363.2651 348
363.6929 119
364.205 132
364.2172 190
365.1769 142
366.8913 284
366.9619 144
367.743 136
367.9632 474
368.9574 269
369.1843 130
369.9656 167
371.1524 197
372.2343 119
372.7166 121
373.2039 137
373.6974 248
376.0309 118
381.2786 3855
382.2088 935
382.2823 863
382.7092 405
382.9701 135
383.2923 110
384.9717 134
385.9779 146
386.6921 118
386.9666 415
397.7016 159
398.1936 110
403.6916 705
404.1935 427
404.6938 142
406.2645 116
406.7254 345
407.2196 206
408.9883 161
409.2245 238
409.9916 111
410.9847 529
411.2218 265
411.2256 183
411.2267 299
411.3538 358
411.9964 126
412.3298 391
412.9199 113
413.1761 213
413.3402 107
413.6333 153
419.7268 173
423.1417 539
423.7271 153
423.8472 119
424.1414 109
424.1537 193
424.2413 177
424.7374 121
425.2343 108
426.2255 294
426.995 258
427.7214 329
428.7304 114
428.9979 453
429.2287 198
429.2368 321
430.7578 140
432.7235 795
433.2264 440
433.7186 152
436.7485 140
437.2591 378
437.7503 1036
438.249 533
438.7459 169
439.283 169
440.281 119
441.239 457
441.7393 233
442.2427 135
442.9391 172
443.2243 387
443.7314 224
445.2586 133
445.6742 121
446.2636 1782
446.7668 1056
447.2621 318
447.3267 309
447.7629 124
450.75 118
451.2575 198
451.7474 140
452.2617 145
453.2445 123
454.2652 446
454.742 906
455.2383 1200
455.7323 689
456.2312 282
458.2934 413
458.7921 225
460.2604 446
460.7611 170
461.2392 124
463.2475 140
463.5813 143
463.7509 636
464.244 1262
464.7479 722
465.2549 232
466.2487 145
471.2589 239
472.2481 119
473.2394 891
473.7408 575
474.2431 169
474.9079 118
475.2826 135
475.9047 115
476.594 294
476.9277 236
479.2422 162
481.7574 124
485.226 580
485.7234 254
487.7513 309
488.2542 156
488.7632 187
492.3277 424
493.2807 195
493.3298 192
493.7798 179
494.8237 112
496.7546 126
497.2578 118
497.7554 377
498.248 283
501.7922 254
502.2822 307
502.7844 187
503.3417 186
503.8472 115
505.2768 1027
505.7706 2044
506.2756 1477
506.7775 572
507.2734 193
507.7644 121
508.9252 152
509.2593 141
510.2652 156
510.3421 377
510.7847 462
511.2615 379
511.3374 137
511.7605 235
513.799 762
514.3013 471
514.8052 197
516.3225 111
516.8258 193
519.2747 487
519.5809 233
519.7719 1001
519.9201 205
520.272 536
520.7791 209
527.7919 132
528.2802 6252
528.7844 3958
529.2846 1571
529.7821 523
529.9432 133
530.2812 102
530.2816 273
531.8419 111
536.2661 125
539.7858 164
540.2964 123
542.8438 122
546.3358 402
546.8373 120
548.2958 167
548.6372 146
548.9739 142
549.3069 146
550.7925 128
552.3248 169
552.8216 166
553.3328 119
554.6563 195
554.988 255
555.2956 127
556.3348 177
556.6781 229
557.0116 165
559.29 280
559.7994 325
560.2887 142
562.0139 174
562.3454 179
563.0286 310
563.3646 388
563.7048 208
565.2896 156
565.8009 288
566.3031 230
566.7945 111
568.9837 351
569.3215 357
569.6559 212
570.6796 128
571.0109 154
571.3414 141
573.3549 119
573.4825 179
574.3236 237
574.6632 554
574.8135 523
574.9983 515
575.3082 414
575.3307 328
575.8105 154
576.3519 272
576.6885 308
577.0221 129
578.6967 549
579.0294 535
579.3636 281
579.7026 124
580.3221 248
580.8218 201
581.3166 122
583.3325 1263
583.8272 2460
584.3284 1380
584.8298 560
585.3348 196
585.847 150
587.364 158
587.6979 310
588.0385 240
588.3701 131
589.3332 211
590.3336 107
591.3736 1065
591.8548 223
592.3372 5386
592.3966 514
592.8403 3652
593.3424 1366
593.3727 3915
593.4088 152
593.7051 3426
593.8493 533
594.0412 2025
594.3389 219
594.3771 759
594.7115 228
623.4407 534
624.4507 214
649.9208 139
698.9135 120
728.9448 126
729.4455 150
731.4615 135
748.4233 137
752.5079 809
753.5059 346
754.4783 139
802.4739 112
802.993 219
812.4437 173
915.5892 675
916.5921 370
916.598 369
1055.5992 152
END IONS
BEGIN IONS
TITLE=Spectrum 2 DRIFT_TIME= 16.6173 16.6485 16.1042 16.4023 16.8392 16.2601 16.7323 16.6428 16.4357 16.4198 17.358 16.4866 16.9008 16.9016 17.5465 17.0869 16.893 18.1769 17.9456 20.1976 17.5164 20.3389 17.5927 18.3794 20.0447 21.1058 18.7843 21.0708 19.889 22.9253 20.6753 18.7979 20.3314 21.5406 20.2369 20.3535 20.0809 18.9046 19.3504 23.8079 22.3703 22.0382 22.4069 26.5515 24.0454 24.3413 21.9358 29.5791 25.7118 25.8065 28.0782 26.9728 29.6042 25.6232 25.8725 29.0744 27.945 29.2791 29.1385 31.1251 34.3305 29.3729 39.1074 29.0551 28.2444 31.4234 31.6917 31.375801 30.2573 21.5148 34.6932 31.904999 31.2164 30.2607 36.6658 35.0039 32.9814 34.6034 37.4537 35.5941 35.6271 33.9628 33.4214 34.1116 36.5646 36.5958 36.0707 35.3992 26.4953 29.4273 34.0079 31.1572 45.1571 33.9169 25.5576 47.0837 31.889801 38.9966 39.4285 34.1077 29.5427 33.2686 33.1905 33.1878 39.1566 39.6883 55.246 39.4199 34.9202 44.0111 31.4431 43.3152 40.9183 43.9802 38.8411 38.3966 38.283 43.8528 51.6959 46.4473 37.1702 38.3195 41.8168 33.902 39.6225 48.6108 43.8396 42.1672 39.3823 39.8216 40.1584 44.0795 51.3723 42.6132 51.3511 50.8017 50.2549 43.0212 51.8075 35.22 35.4106 44.9692 41.7904 46.5896 44.1946 55.6932 52.7597 50.354 53.4453 57.9861 46.0833 55.4789 45.8181 52.9247 40.8316 46.8371 48.9782 46.2423 47.0799 30.6048 62.2503 30.4716 29.8894 51.298 55.0139 48.0749 53.2407 37.1038 56.5369 57.1594 51.978 57.2162 47.3252 50.2435 57.1923 51.6475 58.2179 51.2196 42.1244 46.9095 42.4665 49.9807 51.6024 51.9157 45.6216 66.8059 39.8748 52.7593 38.8731 53.0241 62.6866 52.4879 54.6045 38.8436 39.8631 34.1003 66.7546 71.9508 55.0286 65.4658 65.5185 57.822 69.1914 68.8364 41.3162 41.3448 57.1345 43.6587 43.0019 72.7574 77.2971 78.1948 40.7696 43.9305 77.9519 41.2829 48.9717 49.1647 72.3615 46.8794 46.9235 71.6215 46.7339 45.7709 76.0211 77.0911 72.4259 63.7464 82.8753 77.4479 78.333 50.2666 51.0647 86.6938 87.4343 88.1024 88.9221 45.9003 93.2776 93.3443 98.0604 96.5421 54.6984 54.7267 95.2877 95.7437 98.8021 66.5854 105.0952 104.8543 103.7248 72.9366 117.4407 80.258 84.2703 131.1537 129.2669 129.2433 130.1439 141.2338 146.7432 146.2194 148.363 148.9969 155.6828 
PEPMASS=678.343
CHARGE=2+
70.0736 263
72.0905 1099
73.0379 171
84.0904 635
86.1073 2421
87.057 257
87.1116 162
89.0701 804
104.0829 472
110.0848 902
120.0959 883
121.0811 268
122.0961 4463
123.0994 254
129.1176 2238
130.1046 352
133.1025 707
136.092 6145
137.0959 553
143.1357 2469
144.0832 232
144.1403 254
146.0792 158
147.1323 704
155.1354 144
157.1533 166
158.1141 199
159.0396 237
159.1095 414
160.0466 116
160.1165 150
165.1118 201
169.1193 349
169.1554 148
171.135 567
173.1467 128
175.1401 1523
177.1314 196
178.0732 343
180.0565 228
183.1344 192
185.1505 135
191.1413 178
197.1893 164
201.1516 228
209.1334 306
210.0519 133
213.0057 177
214.9442 197
219.139 150
228.1603 181
229.1496 203
231.0199 305
231.1258 120
232.9593 167
233.1224 131
239.1448 270
240.1633 1092
241.1687 162
242.1802 317
242.2175 241
244.1229 155
247.2364 465
249.0331 126
250.0162 390
251.1328 5652
252.1367 1031
253.142 133
255.1375 173
256.6622 125
258.1767 263
262.1697 298
263.1779 162
264.0154 113
271.2127 175
272.1935 157
273.0463 414
274.0547 826
274.223 242
275.2432 547
276.2469 116
279.1328 1050
280.1342 188
281.1357 306
283.1805 691
284.1819 157
285.1904 160
286.1793 118
286.9731 110
287.9781 244
290.022 188
291.084 155
291.2681 597
292.0706 205
292.201 224
296.237 188
297.1132 151
297.1969 128
299.2105 434
300.9504 252
305.9871 440
307.0462 1624
308.0468 291
309.0448 231
310.2131 973
311.1786 406
311.3392 116
312.19 202
318.9665 191
322.2284 144
323.0225 184
327.175 122
332.0131 134
334.1851 117
335.0623 597
337.0647 115
342.9847 190
343.1993 197
343.278 248
344.2295 126
344.9965 206
345.9997 151
347.996 158
348.7525 258
353.0765 262
353.262 142
357.2242 117
358.0205 365
361.0011 115
364.0039 220
365.0127 111
366 335
370.2922 455
371.0428 152
371.2754 412
372.2847 102
375.2831 526
376.0337 310
382.2236 191
384.2733 383
384.7714 145
384.9706 119
386.9601 169
387.0453 361
388.0324 116
388.3391 396
393.276 190
397.1903 110
398.2975 114
401.3347 160
401.9804 153
402.2969 245
405.0605 170
408.2453 171
409.0628 535
410.9861 162
418.9574 149
419.9862 245
421.9898 257
423.1533 271
423.3114 223
423.653 129
424.1556 110
426.0128 337
426.2443 161
428.9964 183
433.0954 218
437.8876 109
442.2188 754
443.2242 203
444.0269 645
444.2605 184
447.0173 161
448.0063 127
448.2734 154
449.0748 507
449.2853 226
452.9796 167
457.8188 377
457.9487 126
458.3191 166
459.015 125
459.9998 242
461.0224 144
461.9453 154
467.1949 249
471.8201 119
472.0232 102
472.32 122
477.0197 235
477.314 181
479.0225 144
480.0056 109
480.8235 159
481.3276 108
485.2054 109
485.2142 253
494.3548 249
494.9852 108
495.3313 335
499.3251 123
501.0523 150
512.3607 883
513.3658 245
513.7918 264
514.289 139
515.9898 401
516.3052 195
516.8007 191
517.3903 236
525.3471 637
526.3526 197
528.2824 104
530.3643 127
543.3579 163
543.7462 112
546.3251 401
546.8302 238
555.3198 150
558.8827 190
559.3826 134
564.3267 125
565.302 242
565.7999 142
566.374 205
567.3787 130
570.3696 122
573.0172 192
581.4072 147
583.4041 1494
584.4071 376
594.4032 269
594.9016 202
618.461 477
619.3436 334
619.4652 140
620.347 144
677.3966 146
677.4261 186
679.5114 108
680.4806 588
681.487 329
682.4338 142
682.7717 122
696.4999 1053
697.5095 423
717.5403 222
751.9716 124
767.5471 1853
768.5536 851
769.5575 273
817.0108 134
831.5994 331
880.5396 189
903.0517 133
914.6405 1252
915.638 666
960.6507 650
961.6572 275
1059.7178 176
1077.7325 409
1078.7194 290
1116.7495 275
1117.7644 196
1187.8174 263
END IONS
BEGIN IONS
TITLE=Spectrum 3 DRIFT_TIME= 16.6227 62.2295 30.166 34.4592 16.5446 24.3203 62.2925 153.9036 49.5184 50.8133 154.8563 53.3152 125.4416 56.6496 108.2318 55.1669 60.3072 20.0217 141.6637 55.8158 53.3549 72.1918 16.888 62.2178 49.6152 34.6111 24.1149 57.5479 55.0617 60.7141 46.748 56.6726 60.887 55.9477 125.4658 109.2353 30.263 23.5573 16.877 47.8164 142.197 58.5347 29.5035 44.6155 49.6061 37.9526 73.1751 43.6571 179.0998 49.3118 155.4863 58.6803 44.4127 84.5052 49.3504 60.9839 16.2296 31.778297 21.0186 55.4066 57.9391 55.2584 44.3258 45.9719 61.0936 45.4345 176.263 56.8179 55.8701 44.7842 38.7929 50.5535 37.5727 55.9855 51.9602 42.4192 33.4664 48.156 49.0993 43.7659 53.4087 31.113098 37.5439 36.5819 44.7842 49.1551 47.7968 53.5944 16.4501 18.3481 35.8497 60.956 37.6668 40.932 36.1639 36.09 29.1735 36.725 39.4805 37.9986 71.8412 22.5017 47.1191 85.1905 54.8937 29.2971 52.1061 55.4926 46.314 16.6491 20.6501 56.2202 43.1178 50.0449 45.8068 48.8768 36.8005 36.5859 48.6714 59.4723 41.8082 27.675 31.2905 52.3734 67.5553 149.0048 41.8023 42.0972 47.7822 17.5248 36.8719 32.667 44.5941 62.1766 34.5078 57.1177 124.6247 16.6227 45.3983 26.7661 62.2665 49.8765 43.3251 56.1173 16.4129 124.3371 18.8375 52.6091 39.4243 54.5811 58.6428 62.6365 57.261 38.603 149.6646 38.6089 42.1217 41.1282 50.8954 45.1628 39.7596 52.0005 139.4854 32.4879 58.2894 43.7671 36.7325 36.2321 46.7194 60.7455 31.154701 24.4585 34.3045 30.0029 29.7683 35.3193 38.1564 30.144 48.201 24.5333 36.0626 37.9252 68.8977 50.1269 51.866 58.1108 72.8559 44.8975 55.5359 29.8957 44.3511 17.0678 44.798 42.4067 53.5505 53.0265 38.1024 80.8458 44.0818 55.1893 31.6763 39.1527 45.1747 36.5483 35.6978 51.8097 45.2773 155.1488 36.679 108.9435 25.8699 41.6594 34.5276 48.3801 40.6045 40.3556 73.5804 56.9947 56.9402 58.7581 16.4891 32.5712 53.5752 44.6119 50.22 35.7333 30.3172 57.7953 44.3117 47.0527 35.4521 57.5368 29.3827 30.4933 47.1469 38.1687 32.848 31.143997 60.4972 21.5021 28.9947 36.1532 52.3047 49.5566 34.8092 42.9616 48.7833 47.5763 36.7499 41.657 42.8083 83.6697 58.6791 34.1442 41.0515 64.8407 36.8005 49.1266 32.3774 43.2146 35.9977 48.4051 36.7711 93.95 52.4549 37.3408 46.9556 41.2024 55.3804 55.375 40.0354 43.2273 35.7375 52.95 34.6475 35.3276 42.1119 40.8141 49.7887 42.5454 32.212 42.7184 32.7459 16.4662 22.8215 54.2151 34.815 53.061 88.1094 39.2668 45.6461 46.5431 42.8056 40.5964 45.4185 33.8995 36.8442 35.4098 40.6293 44.9267 40.7902 44.2605 44.3284 35.1578 51.158 47.6229 55.8076 21.9814 46.9551 31.0397 42.9084 42.4618 45.9541 41.8502 41.2548 38.1622 31.536102 35.0093 26.2883 67.2025 42.1551 122.1222 148.5124 38.6721 35.4559 50.1225 43.0148 44.6815 56.1635 32.0679 51.9892 49.847 26.7939 45.9209 42.2041 36.409 48.6855 27.635 56.6154 31.0257 41.7794 32.6229 53.0425 51.1249 21.6533 44.4359 54.9728 34.1365 44.5927 45.2889 47.4036 55.3726 39.8585 42.4253 35.025 54.8595 42.7506 42.8896 48.4353 52.8462 68.7142 51.8201 41.0472 53.8637 29.0279 31.861702 35.0502 53.5696 37.7963 94.4302 57.1974 36.1252 36.5976 53.5162 37.0196 45.1486 34.718 33.2938 46.7931 35.6296 52.8328 56.6795 37.939 34.6998 47.6983 53.3693 104.442 24.518 31.646599 31.219498 37.0559 37.2591 34.8022 44.3013 31.3726 50.5797 52.9419 54.5175 37.9954 29.9032 80.0467 50.7306 43.7056 48.3507 24.248 57.9911 29.2567 54.9599 55.2364 61.1451 41.829 46.2512 32.6842 35.7093 52.1137 75.6565 54.5594 44.7667 49.6152 38.5033 24.7872 38.0466 49.3306 21.1614 53.6132 41.1765 57.4883 48.5198 28.4327 29.2638 29.9762 49.2042 23.8313 36.559 91.5733 30.275 29.7125 42.6874 44.901 36.9535 78.1706 20.9946 26.1027 48.4237 40.8022 41.8413 62.6097 26.9892 50.9111 30.5714 39.9165 45.2083 41.2713 27.371 43.7334 35.1545 40.9872 52.3594 31.9342 27.2315 40.4936 44.3227 36.1944 52.4377 51.5206 41.0379 35.5271 47.8708 39.8879 52.654 37.9065 25.2333 42.1525 34.6753 46.357 28.2987 36.7053 32.0545 70.2672 47.4968 42.2795 30.5202 48.3154 52.1994 45.3241 45.7133 37.6444 36.2502 45.1061 33.5828 60.6689 33.9461 37.6537 39.7034 44.8828 37.0446 53.4254 53.7823 30.3882 35.7022 36.7541 45.2974 32.0593 74.9784 26.3114 46.6468 34.9818 
PEPMASS=713.897
CHARGE=2+
61.0509 325
714.5031 6811
223.1916 6466
251.1918 6132
110.0896 5983
195.0286 3471
715.008 3298
1176.8325 2835
361.2593 2490
379.2723 2325
1177.838 2111
594.9188 2091
935.6554 1834
695.428 1776
822.5462 1703
609.927 1589
698.4702 1502
175.1482 1440
1048.7563 1426
666.9289 1375
595.4207 1323
492.3789 1301
86.1113 1288
715.5133 1260
719.4756 1241
252.1967 1221
197.0266 1212
697.4266 1111
610.4283 1100
698.9719 1079
565.3282 1057
695.9336 1055
705.498 1035
694.3825 979
936.6511 937
823.5519 920
224.1962 919
205.0611 902
122.1025 893
611.331 889
1049.7548 883
717.4551 882
255.0705 858
680.7738 835
474.9303 788
497.7578 757
530.3921 756
574.8092 752
1289.9395 739
362.2587 738
1178.8368 734
717.9466 726
680.4358 702
659.4596 697
546.3505 695
705.0005 681
110.0469 652
242.1913 652
159.047 635
686.4211 622
697.927 616
694.8846 613
432.9009 608
565.8233 606
705.997 593
584.3048 581
1290.9417 567
696.4509 562
675.4093 552
588.3202 546
