BEGIN IONS
TITLE=Spectrum 1 DRIFT_TIME=16.4769 17.4467 16.0274 16.2087 16.0797 16.3705 16.03 17.0811 17.2025 16.0434 15.960201 16.1145 16.7067 16.1903 16.2893 16.7082 15.9475 16.0321 16.1226 16.4959 16.2289 16.4127 16.2739 16.1585 16.2146 16.1141 16.5814 16.1948 16.1014 16.134 16.4917 16.2717 16.1755 16.1692 16.1938 17.2152 16.0423 16.2892 16.4526 16.8013 16.3299 16.7829 17.0092 16.7609 16.5431 16.2706 16.9396 16.3893 16.2974 16.3062 16.4783 16.6076 16.3598 16.854 16.2965 16.9028 16.603 17.5328 16.4376 16.2314 16.5137 17.7295 16.4148 17.1037 16.824 16.7329 16.5475 16.888 16.3666 16.3912 17.4195 17.4812 19.6602 16.9553 20.1653 17.1555 16.9967 16.4601 16.9774 17.0761 18.6781 17.0591 18.6428 17.1092 18.6431 16.893 18.7513 16.9746 16.6537 16.9435 16.8516 16.605 18.0113 16.9372 17.611 17.9699 17.6102 17.4285 17.719 18.0098 18.2251 16.5871 18.7297 17.5892 17.3242 17.5468 18.7211 17.505 17.5424 17.3062 17.3421 17.5895 17.2057 17.0253 17.6622 17.1973 18.0313 17.768 18.1011 17.4556 17.5759 17.495 17.3965 17.7023 17.5642 17.1188 16.8644 16.9996 17.6827 19.4067 17.4774 17.2488 18.2029 16.7114 17.6891 18.1269 17.1227 18.1902 17.3059 18.6502 16.6083 22.3863 17.0087 18.9225 16.9591 19.1513 22.2354 18.0719 19.1147 17.0522 18.0045 17.7565 17.4135 18.7225 18.892 20.6457 20.7792 20.7104 18.6339 22.7363 16.8653 20.8272 19.8252 21.9455 17.0932 20.1152 19.9894 19.0273 21.0345 20.9584 19.6242 20.7058 21.2339 21.7149 18.078 20.3799 17.2642 20.5319 16.6377 19.8354 19.7431 17.8054 18.0212 23.42 19.0331 23.3385 21.2919 20.0812 25.8109 18.2582 24.6615 25.253 20.906 20.5671 24.6996 20.9248 24.8993 25.8087 20.3598 20.9843 19.1374 23.8247 18.7583 24.0129 20.9467 23.8082 24.5326 28.6992 16.7715 24.2382 19.7775 26.0983 22.829 26.2788 22.9307 22.8159 26.3846 18.203 23.1011 22.9007 16.5207 30.9583 23.4923 23.5697 22.8263 23.6982 22.8525 16.6763 23.6206 16.3882 16.2747 23.9469 23.0728 23.8548 16.4751 16.5569 23.346 23.2251 23.6608 22.9808 22.8522 23.3026 25.046 23.4289 23.8282 16.9906 23.7513 38.2282 23.8708 38.4283 21.5714 17.1817 23.8256 24.4554 16.9875 30.2173 16.873 16.9734 28.0612 24.3961 25.1701 16.5828 16.4585 28.5639 21.8753 16.9072 17.0909 16.628 17.0659 16.5778 28.6021 36.0315 16.7045 31.2711 16.6236 16.6744 16.6231 28.5609 16.4458 35.076 16.8412 28.0444 16.431 16.3142 27.9775 17.4815 17.4371 16.6997 28.3287 16.7013 28.4424 16.3564 16.5632 16.5931 27.7338 16.4764 35.8529 17.7889 16.5036 17.6504 36.6932 17.6604 18.5754 18.4195 16.5103 26.8517 38.9984 16.7765 16.7811 16.9849 27.2251 17.3181 16.6504 16.5309 16.844 16.4386 16.8195 39.1124 37.7718 17.3838 28.0551 16.6632 18.8839 36.7685 18.957 16.5623 18.0701 16.5794 40.9723 17.5413 16.8919 16.864 18.5318 18.7995 36.5775 19.0927 19.021 18.7797 16.8674 32.2329 27.9129 16.6852 32.5261 17.516 42.1697 18.0678 42.1208 40.2075 40.0349 20.6842 17.4502 20.5754 20.6145 43.8613 33.9048 24.92 34.3836 16.8342 19.1055 18.834 40.6568 32.8083 18.3914 21.7834 32.7755 32.6337 17.708 17.6104 17.7281 17.4046 33.0502 17.3115 17.3934 17.5679 33.0099 19.807 18.157 19.2257 18.1029 33.6381 22.2805 32.2969 22.3512 30.6749 18.5794 17.6742 32.3531 17.9801 18.0076 32.633 20.4314 20.1086 32.7708 26.8712 20.385 49.3768 32.7338 19.9723 32.3335 34.6377 32.4185 19.5824 19.5732 32.3913 17.7844 33.8344 31.730698 20.8792 22.2944 33.3091 21.7806 21.4781 18.6477 18.9968 32.3427 18.0838 32.5694 19.7533 32.4178 32.3152 32.3605 41.4441 22.1748 22.3682 22.1258 20.8966 32.9754 33.4147 19.9915 32.4289 19.3728 21.7736 32.33 18.8527 32.1544 58.5526 32.2735 32.2881 22.9682 33.8336 32.532 20.2387 20.7053 20.4474 32.5658 33.7607 32.026 32.6296 29.1271 23.6045 32.9914 23.8367 23.8356 53.3088 23.721 32.815 38.1809 23.7148 33.9776 24.8533 22.9834 17.3769 51.9787 23.7881 23.8586 52.5581 23.9427 20.6552 22.9369 23.3781 24.01 24.76 24.1176 54.27 25.0992 25.3628 17.4707 30.0989 58.3001 29.6271 56.0896 25.4274 49.9108 25.3341 25.1712 26.0629 25.5274 18.2256 25.2034 39.7976 17.8473 17.296 17.4575 26.0217 17.2317 24.7316 39.2134 31.0261 17.6261 17.4983 26.6638 26.1921 26.7639 26.1112 25.915 25.9957 40.1579 24.9561 61.0705 40.5682 27.2282 38.5921 27.6786 27.5895 27.1181 37.3684 39.8954 27.1109 39.8742 55.1016 39.665 26.3915 62.8571 39.7512 57.9189 40.3598 43.3253 27.3857 38.2463 43.0454 34.6794 28.5141 27.33 42.7578 39.7588 27.0884 27.3096 42.5394 27.0406 42.3444 37.1417 28.3081 28.6926 28.0678 42.7754 37.4447 43.1563 30.5451 38.3004 29.9817 65.1275 61.757 42.7115 27.092 27.4635 61.7227 27.7082 43.0292 32.4243 28.573 43.3503 28.3958 36.8225 28.1108 61.9294 43.0645 38.6091 30.2286 64.7486 42.7785 28.7788 42.8121 64.5349 35.15 65.0722 66.2863 42.7554 29.7192 29.9059 42.8141 30.2796 29.6864 42.7621 43.077 44.4518 32.2498 32.4319 44.126 30.7739 30.4538 30.4904 30.2352 43.1937 30.8072 42.6137 43.4678 43.0378 44.6201 30.7733 43.9015 30.714 30.2357 44.1533 44.6144 32.9129 66.3697 65.7549 43.6359 43.6132 42.8025 32.3154 32.1575 41.2644 70.2244 71.176 33.6765 71.5187 33.4393 33.0554 68.3077 72.2961 74.1638 71.8336 73.048 85.1459 69.9541 73.3514 73.9985 83.0627 76.2342 87.8519 89.6172 79.2696 52.7598 52.2863 52.5098 54.0011 52.8973 54.3023 44.1536 43.5529 43.952 91.9368 46.8245 48.0956 105.3227 95.053 103.0086 109.0904 95.6928 119.7439 120.0151 120.5638 
PEPMASS=624.318
CHARGE=2+
56.0512 177
56.9673 220
69.0718 200
70.0679 2915
71.0711 167
72.083 194
74.0086 267
74.9346 216
81.9653 201
83.0636 1022
84.0477 336
84.0837 2430
84.9623 6408
86.0994 1743
88.026 199
88.9551 219
90.0038 501
93.048 620
95.0637 428
98.99 4720
102.0586 252
102.9748 273
103.0582 209
110.0745 9680
111.0782 807
112.0895 248
114.9645 161
116.0216 215
116.0753 201
116.9779 185
117.0024 246
120.0851 3947
121.0882 382
129.1055 776
130.091 1740
130.8926 240
131.9898 238
132.9744 163
133.0476 380
134.9677 2510
136.0849 856
136.9649 734
140.9229 2056
141.9967 222
144.9969 4666
147.1168 578
148.9057 176
148.9458 173
150.9416 2126
152.9389 736
152.9789 221
155.1251 152
156.0823 719
156.8965 472
158.0974 467
158.9335 2661
159.0246 2571
160.9039 327
160.9692 258
161.0374 150
165.1072 253
166.8753 143
168.9532 293
170.9336 2307
171.0239 277
171.9793 219
173.0586 149
174.9077 582
174.9981 262
175.125 1116
176.9004 603
178.8984 260
184.84 347
185.9466 226
186.8368 327
186.9285 4179
188.9196 218
190.0658 207
191.8871 193
192.8715 146
194.8679 3222
195.0024 1429
196.8642 3236
196.9975 424
198.8608 1126
198.9468 343
200.8568 191
201.1148 237
201.9182 754
201.9905 156
202.9029 1270
203.9113 166
204.8937 17374
205.0324 251
205.9004 617
206.8934 6605
207.0043 181
207.0971 182
207.8959 217
208.8905 966
210.8876 497
210.9729 161
212.8796 854
214.9175 38141
215.066 633
215.9323 2467
216.873 309
216.9256 1925
217.1413 2549
217.9232 307
218.143 420
218.9195 4204
219.9244 255
220.8694 797
220.9209 491
222.8611 319
222.9083 3936
223.9131 156
224.9061 1261
225.1064 661
226.1183 151
226.9071 1154
228.9003 412
228.9521 2847
229.1117 145
229.9018 243
230.8984 4829
231.9001 356
232.9359 7548
233.1743 489
233.9426 352
234.895 1383
235.1273 1028
235.8988 183
236.0746 728
236.1324 174
236.8922 659
236.9317 707
238.89 359
240.9198 246
242.8789 660
244.8698 263
244.9242 2279
245.136 1982
245.9253 258
246.1358 1668
246.8703 259
246.9598 934
247.1387 225
248.9117 1021
249.998 337
250.949 213
252.9108 267
253.1007 1341
254.1013 214
254.9007 1331
256.8988 1506
258.8964 611
258.9521 500
260.2057 927
260.8942 255
261.1679 432
262.1363 491
262.8866 114
262.9371 266
264.9308 1954
266.929 632
271.9592 276
272.9134 248
274.9022 434
274.9595 1434
276.9061 173
278.1327 335
280.1232 663
280.9019 270
281.0989 478
282.8917 216
282.9342 199
283.8875 254
284.9239 554
286.8097 218
286.9425 393
290.9382 149
296.1456 756
296.8335 1206
297.1404 194
298.8296 191
300.9839 168
304.7748 173
304.8738 166
306.1294 2515
306.7708 276
306.8645 266
307.02 1526
307.1298 466
308.0206 222
308.1158 413
308.761 130
308.8598 125
309.0163 275
310.8632 124
314.7992 1322
314.8488 307
316.7964 1425
316.8935 242
318.7937 684
320.7914 170
321.1654 344
321.8466 160
322.7851 221
322.9913 706
324.1403 4286
324.8261 14293
325.1406 739
325.8307 602
326.8247 9347
327.0568 170
327.1816 126
327.8295 349
328.8204 576
329.8528 251
330.1904 274
330.8219 159
332.8125 593
334.8576 4458
335.8627 226
336.854 1658
338.664 159
338.8524 477
339.8377 216
340.8368 145
340.8548 201
342.8406 3766
343.8438 118
343.8539 203
344.6325 153
344.8841 9258
344.9707 675
345.8906 633
346.8328 231
346.8877 483
348.88 895
350.8398 415
352.8694 887
354.8699 322
355.6462 150
356.8624 340
358.2241 1520
358.9073 217
359.2278 341
360.8577 596
362.1508 157
362.8953 1032
363.9 136
364.1583 355
364.192 331
364.6521 254
365.1536 159
366.8089 135
366.8849 160
368.8569 116
372.3015 190
374.8023 173
374.8377 174
374.8838 116
375.1507 271
375.6238 592
375.8014 233
376.1253 304
376.7994 254
376.828 179
377.1612 295
377.7898 204
378.1537 167
379.8186 208
380.8127 304
380.94 177
380.9451 557
381.8132 330
382.225 171
382.8108 223
382.9346 136
383.808 224
384.8392 239
384.8604 179
385.167 195
385.6587 205
385.8101 234
386.6835 232
386.7998 275
386.8622 139
387.8237 216
388.8221 202
389.8197 325
390.9728 391
391.8237 199
392.2052 110
392.6656 1514
392.814 199
393.1666 1088
393.2044 234
393.6636 448
394.1722 422
394.6768 234
396.3174 177
396.9169 210
397.1883 379
397.8204 302
398.4866 193
398.8094 299
398.9196 216
399.1114 217
399.8124 338
399.9144 326
400.8032 331
400.9144 395
401.8166 257
402.2279 169
403.2042 189
404.1261 168
404.6896 272
404.9195 205
405.1695 225
405.1753 232
405.6746 232
405.8228 256
406.1661 230
407.8684 381
408.2391 120
409.6124 201
410.5652 246
410.8143 193
413.6784 409
414.1768 434
414.2201 126
414.6797 676
415.1798 436
415.6741 193
416.4547 197
416.9244 461
418.8578 131
418.9034 197
418.9194 167
419.112 171
419.2532 247
420.1491 171
420.2403 2132
421.2025 841
422.2113 294
422.6828 1121
423.0845 174
423.1835 566
423.6854 200
425.1674 230
426.7015 285
426.801 168
428.6952 158
431.9072 193
432.6522 219
433.1495 175
434.1965 311
434.7304 872
435.647 341
436.1889 153
436.729 1200
436.9772 139
437.0985 173
437.602 388
438.0905 215
438.6171 519
438.725 784
439.1263 247
439.6146 175
440.1189 178
440.7288 280
441.1713 145
441.5947 171
441.6632 218
442.0875 197
442.7164 222
444.6949 479
444.762 2156
445.1986 260
445.7681 135
446.1006 327
446.607 290
446.7591 2076
447.6281 324
448.1256 236
448.7556 819
450.1768 314
450.6807 273
450.7529 233
450.8368 164
451.1764 175
451.2753 162
452.742 645
454.1629 140
454.7901 2163
454.8795 265
456.7876 1605
457.6569 252
458.1568 145
458.7832 587
460.1081 161
460.7472 211
460.8879 151
462.1812 155
462.6835 199
462.774 589
463.1837 186
463.6786 158
464.0939 157
464.5969 166
464.818 5353
465.0838 190
465.8205 532
466.6064 210
466.8164 2561
467.8244 246
468.8105 879
470.1553 141
471.1873 190
471.6889 326
472.1936 490
472.665 180
472.8371 701
473.8298 156
474.5948 217
474.844 11502
475.5785 175
475.6834 130
475.8513 1324
476.5873 152
476.8487 899
477.3016 361
477.8389 147
478.8404 1387
480.1997 343
480.8012 662
480.8703 398
481.1503 551
481.6507 381
482.1598 155
482.8414 585
484.8232 221
486.8264 131
488.8592 163
490.8202 834
491.7008 154
492.8626 228
493.696 182
494.1831 124
495.2988 215
496.6969 114
496.8407 143
496.9692 214
497.1905 148
498.823 142
502.212 235
503.1714 138
504.8596 190
505.3003 863
505.6983 388
506.1967 388
506.3018 310
506.6949 205
508.1034 134
508.6672 199
510.6753 258
511.1741 209
514.7012 314
515.1927 218
518.2595 249
519.6839 163
520.6933 112
521.2075 113
522.2889 306
522.3187 257
522.7851 129
523.2949 163
523.6978 130
524.1666 117
524.1851 178
527.2045 211
527.7108 282
528.2048 227
528.5377 419
528.6956 166
528.8043 152
528.873 271
529.1567 256
529.4932 246
529.6945 207
529.8288 212
530.1752 133
530.7828 173
531.2934 130
533.8629 219
534.1961 149
535.7142 411
536.22 305
536.7186 421
537.214 275
537.7094 139
538.6856 511
538.825 488
539.1804 247
540.2746 404
540.8215 319
544.7202 408
544.7696 247
545.2225 238
545.7149 160
546.2002 194
546.7901 327
548.8546 1665
549.7263 144
549.8524 258
550.263 315
550.8553 877
551.1896 133
551.2915 136
551.8537 166
552.2461 155
552.8505 326
554.6688 615
554.7104 111
554.8097 278
556.6647 829
556.7612 655
557.7304 184
558.2211 124
558.6596 610
558.8798 655
559.6978 250
560.1906 225
560.659 280
560.6942 111
562.6458 109
562.7781 130
563.2173 271
563.7128 245
564.215 165
564.6899 911
564.8244 377
566.6881 1226
566.7361 200
566.8358 203
567.2369 173
567.3107 1314
568.2773 1144
568.6855 738
568.7026 925
569.1991 421
569.2769 442
569.7034 161
570.6849 254
571.802 163
572.2202 381
572.675 474
572.7182 341
572.8126 150
573.2212 151
574.3188 215
574.687 700
574.8479 272
575.2005 247
575.3184 114
576.7101 630
576.7107 113
578.6614 286
580.3273 489
580.8069 137
581.3229 314
582.3179 159
582.7145 326
584.22 149
584.7245 187
584.7468 1069
585.2216 203
585.7271 157
586.7499 749
588.7462 256
590.7026 256
590.7495 269
591.2459 124
592.7047 196
593.2321 322
593.7255 344
594.229 502
594.7278 381
594.7784 1349
595.2379 134
595.7859 149
596.7775 728
598.7772 383
600.7365 372
602.235 480
602.716 195
602.7379 286
603.2319 146
604.8115 1301
605.82 140
606.2498 113
606.3001 217
607.2949 133
608.8009 163
610.7739 247
612.7722 137
615.2458 138
615.7392 182
620.773 170
622.3127 479
623.3333 1024
624.2552 236
624.3419 601
624.7588 241
625.2543 129
625.3419 136
637.3344 388
638.3351 156
648.293 427
649.2947 124
653.3549 221
663.351 148
665.3303 647
666.3339 318
680.4044 572
681.3568 296
681.3588 753
682.3586 307
687.417 112
694.6359 107
696.6378 128
706.681 160
714.7121 305
716.7089 204
724.7438 154
732.285 186
738.2853 130
747.2953 162
750.4244 132
777.7832 258
792.7993 289
827.4813 373
828.4369 291
828.44 387
828.4836 201
829.4315 205
924.5272 781
925.5335 537
926.5281 233
END IONS
BEGIN IONS
TITLE=Spectrum 2 DRIFT_TIME= 16.1031 16.3101 16.7533 16.2235 16.1629 16.4823 16.1845 16.11 16.8334 16.5884 16.4417 16.2271 16.3459 16.3566 16.9143 16.6074 17.1879 16.3421 16.7866 16.665 16.5691 17.0254 16.648 18.7892 16.965 18.8035 16.915 17.882 16.879 17.9935 17.8628 16.9732 18.0811 17.4535 16.965 23.457 18.0397 43.6489 134.5089 22.9647 186.1225 37.8142 16.7309 18.052 43.5694 42.8099 59.0972 48.8006 91.6055 17.0254 17.537 42.5047 72.5074 42.6421 31.859299 17.7702 43.0656 17.3953 20.5024 114.651 16.4337 32.2725 20.185 32.3561 32.4227 52.3236 16.981 54.0221 38.494 43.7172 22.7725 32.234 16.3421 18.7892 29.5079 90.1795 22.5531 17.1189 20.856 16.11 16.915 18.0811 66.7052 33.0631 43.3068 53.9858 19.052 42.9719 52.8702 137.3556 45.5506 19.1895 189.3757 59.6014 42.9281 16.879 17.2043 16.3101 52.1461 53.7082 18.7407 18.8035 17.0791 55.5738 53.3347 61.4749 33.4173 32.4163 62.9776 17.1879 16.3459 38.3465 63.0912 18.3439 17.848 52.583 16.5691 33.0103 42.3859 16.9143 23.8079 57.8197 18.5687 20.7173 16.1845 39.4902 31.253403 33.8435 52.9334 16.3566 16.9732 16.665 18.4091 23.3062 28.4121 42.0169 39.5449 50.1733 16.1629 16.9903 51.4626 62.5941 28.0836 93.5753 16.648 62.5541 31.845299 63.033295 42.6988 16.5884 17.8628 43.1564 38.4037 52.6609 54.9426 29.6371 20.2761 63.907303 57.3434 37.883 31.301498 44.749 32.681 39.917 30.157 33.9187 62.4703 23.718 23.1322 31.970299 39.1868 53.9255 63.0913 37.6462 28.6145 43.9488 25.9145 
PEPMASS=844.4265
CHARGE=2+
70.0675 1593
84.0481 226
84.9617 753
86.0988 2977
87.1042 148
98.99 994
115.0539 178
120.0847 271
134.9686 713
143.1241 134
144.9963 1418
150.9403 753
152.9398 202
155.1248 163
158.9335 186
159.0239 894
170.9363 204
175.1281 313
183.1552 978
184.1587 158
186.1311 193
186.9285 492
187.0794 143
194.8652 310
195.0014 682
196.8641 214
196.9962 268
204.8948 2700
205.032 230
206.8935 962
208.8909 134
209.1009 159
211.1505 264
214.9223 8522
195.0014 682
344.8866 670
222.9055 644
584.7494 622
1122.5613 620
334.8578 618
1332.7032 589
657.837 570
230.8961 568
228.1412 566
594.7751 556
586.7407 531
560.2948 515
489.2616 498
861.4513 494
186.9285 492
218.9177 469
576.7217 456
733.3859 449
454.2385 440
357.1911 439
228.9501 434
574.7156 431
215.9282 419
307.0193 419
1008.5222 409
242.8826 399
456.7858 386
266.9258 377
466.8079 367
446.7567 364
696.6456 359
244.9246 358
714.7022 348
658.3388 339
604.8067 330
342.8397 327
444.7571 324
175.1281 313
194.8652 310
329.1905 302
843.4254 297
336.8522 295
234.8981 294
254.8991 292
120.0847 271
196.9962 268
211.1505 264
632.3328 263
775.666 259
596.7709 258
724.736 256
246.1633 255
566.6911 249
704.6732 249
1123.5729 246
472.2685 244
243.1421 242
1333.6873 239
561.3027 233
578.7215 232
205.032 230
216.9246 228
84.0481 226
694.6583 226
716.7106 225
565.7394 217
196.8641 214
226.9094 214
567.3269 214
706.6894 212
816.5725 210
375.228 209
775.9949 209
600.3336 206
170.9363 204
152.9398 202
657.3419 200
814.5782 200
280.9036 199
224.9053 196
686.6275 194
186.1311 193
775.3289 193
564.6862 189
158.9335 186
316.7961 184
583.3086 183
566.7364 181
256.8957 179
115.0539 178
425.2475 178
358.7637 171
508.8665 171
688.6244 171
155.1248 163
209.1009 159
184.1587 158
296.8406 158
352.8714 158
326.1921 157
568.6839 156
436.2344 154
444.2651 153
87.1042 148
220.866 145
698.6427 145
824.6005 145
297.2048 144
862.4547 144
187.0794 143
834.6552 139
468.8113 138
826.6095 136
455.2365 135
143.1241 134
208.8909 134
588.74 134
667.8531 132
684.6159 132
734.7521 132
339.1808 131
284.931 130
854.7014 130
539.3295 129
658.8423 129
374.7824 128
730.8671 124
458.7912 123
426.2518 122
340.1911 120
472.7987 118
808.547 118
649.2241 117
328.8174 116
448.7495 116
548.8567 115
708.6651 115
818.5851 115
546.8019 114
561.2806 113
731.3604 109
740.5582 106
END IONS
BEGIN IONS
